
  ZVRE, 2.05

  stimulus-start        ; stimulus-stop       ; stimulus-unit       ; nof-points; parameter-type; impedance-ohm
  4.00000000000E+08     ; 4.80000000000E+08   ; Hz                  ; 1601      ; S21           ; 50        

  conversion            ; time-domain         ; data-format         ; param-unit; smoothing     ; trace-math
  S                     ; none                ; MAGNITUDE           ; dB        ; none          ; none

  sweep-mode-type       ; notlinear-meas-mode 
  FUNDAMENTAL           ; none                


  freq              ;  S21          
   4.00000000000E+08; -39.6038      
   4.00050000000E+08; -38.0801      
   4.00100000000E+08; -35.944       
   4.00150000000E+08; -38.9073      
   4.00200000000E+08; -38.9636      
   4.00250000000E+08; -43.4635      
   4.00300000000E+08; -36.2017      
   4.00350000000E+08; -38.0086      
   4.00400000000E+08; -39.2221      
   4.00450000000E+08; -45.3491      
   4.00500000000E+08; -42.3692      
   4.00550000000E+08; -35.7992      
   4.00600000000E+08; -33.2699      
   4.00650000000E+08; -33.77        
   4.00700000000E+08; -35.6299      
   4.00750000000E+08; -43.6117      
   4.00800000000E+08; -39.8762      
   4.00850000000E+08; -43.291       
   4.00900000000E+08; -38.8657      
   4.00950000000E+08; -35.1727      
   4.01000000000E+08; -39.1195      
   4.01050000000E+08; -39.4331      
   4.01100000000E+08; -42.1398      
   4.01150000000E+08; -52.4226      
   4.01200000000E+08; -45.677       
   4.01250000000E+08; -33.7342      
   4.01300000000E+08; -30.8617      
   4.01350000000E+08; -33.4456      
   4.01400000000E+08; -34.2185      
   4.01450000000E+08; -35.2165      
   4.01500000000E+08; -34.1357      
   4.01550000000E+08; -35.3544      
   4.01600000000E+08; -38.8592      
   4.01650000000E+08; -39.9583      
   4.01700000000E+08; -38.2166      
   4.01750000000E+08; -35.5175      
   4.01800000000E+08; -36.0547      
   4.01850000000E+08; -34.3865      
   4.01900000000E+08; -33.7471      
   4.01950000000E+08; -34.3731      
   4.02000000000E+08; -33.1383      
   4.02050000000E+08; -32.0633      
   4.02100000000E+08; -33.8117      
   4.02150000000E+08; -35.1213      
   4.02200000000E+08; -33.129       
   4.02250000000E+08; -33.991       
   4.02300000000E+08; -34.2394      
   4.02350000000E+08; -33.9385      
   4.02400000000E+08; -36.3674      
   4.02450000000E+08; -35.7946      
   4.02500000000E+08; -33.8195      
   4.02550000000E+08; -34.0559      
   4.02600000000E+08; -34.3988      
   4.02650000000E+08; -35.9005      
   4.02700000000E+08; -33.6199      
   4.02750000000E+08; -34.3591      
   4.02800000000E+08; -34.2805      
   4.02850000000E+08; -33.4255      
   4.02900000000E+08; -32.4418      
   4.02950000000E+08; -34.4596      
   4.03000000000E+08; -33.4131      
   4.03050000000E+08; -33.8454      
   4.03100000000E+08; -36.3556      
   4.03150000000E+08; -34.1696      
   4.03200000000E+08; -33.6059      
   4.03250000000E+08; -35.6315      
   4.03300000000E+08; -34.7891      
   4.03350000000E+08; -33.2097      
   4.03400000000E+08; -32.7936      
   4.03450000000E+08; -34.1616      
   4.03500000000E+08; -35.5507      
   4.03550000000E+08; -35.9289      
   4.03600000000E+08; -35.626       
   4.03650000000E+08; -34.982       
   4.03700000000E+08; -33.1695      
   4.03750000000E+08; -33.2869      
   4.03800000000E+08; -34.0073      
   4.03850000000E+08; -38.5493      
   4.03900000000E+08; -36.7772      
   4.03950000000E+08; -33.6709      
   4.04000000000E+08; -36.121       
   4.04050000000E+08; -37.9052      
   4.04100000000E+08; -34.9021      
   4.04150000000E+08; -35.0187      
   4.04200000000E+08; -34.9593      
   4.04250000000E+08; -36.1358      
   4.04300000000E+08; -37.7403      
   4.04350000000E+08; -36.1748      
   4.04400000000E+08; -35.7114      
   4.04450000000E+08; -36.6528      
   4.04500000000E+08; -36.2472      
   4.04550000000E+08; -36.2193      
   4.04600000000E+08; -38.4428      
   4.04650000000E+08; -37.1227      
   4.04700000000E+08; -36.2159      
   4.04750000000E+08; -34.9042      
   4.04800000000E+08; -36.0784      
   4.04850000000E+08; -37.5661      
   4.04900000000E+08; -36.5506      
   4.04950000000E+08; -35.5273      
   4.05000000000E+08; -36.123       
   4.05050000000E+08; -36.0114      
   4.05100000000E+08; -35.6249      
   4.05150000000E+08; -36.4117      
   4.05200000000E+08; -37.1304      
   4.05250000000E+08; -36.4179      
   4.05300000000E+08; -37.1981      
   4.05350000000E+08; -38.1519      
   4.05400000000E+08; -36.1839      
   4.05450000000E+08; -34.7817      
   4.05500000000E+08; -35.0161      
   4.05550000000E+08; -38.3186      
   4.05600000000E+08; -37.4585      
   4.05650000000E+08; -36.277       
   4.05700000000E+08; -36.6211      
   4.05750000000E+08; -36.3244      
   4.05800000000E+08; -37.2441      
   4.05850000000E+08; -38.4313      
   4.05900000000E+08; -37.065       
   4.05950000000E+08; -39.3836      
   4.06000000000E+08; -37.8619      
   4.06050000000E+08; -37.6064      
   4.06100000000E+08; -37.4937      
   4.06150000000E+08; -38.3449      
   4.06200000000E+08; -38.0491      
   4.06250000000E+08; -38.8934      
   4.06300000000E+08; -41.3679      
   4.06350000000E+08; -38.4417      
   4.06400000000E+08; -37.7673      
   4.06450000000E+08; -36.9859      
   4.06500000000E+08; -36.5357      
   4.06550000000E+08; -36.7969      
   4.06600000000E+08; -38.2441      
   4.06650000000E+08; -37.3936      
   4.06700000000E+08; -36.4989      
   4.06750000000E+08; -36.3131      
   4.06800000000E+08; -36.2833      
   4.06850000000E+08; -37.7026      
   4.06900000000E+08; -36.2859      
   4.06950000000E+08; -36.7651      
   4.07000000000E+08; -36.1909      
   4.07050000000E+08; -37.4164      
   4.07100000000E+08; -36.8832      
   4.07150000000E+08; -38.8847      
   4.07200000000E+08; -37.1115      
   4.07250000000E+08; -36.9323      
   4.07300000000E+08; -37.6549      
   4.07350000000E+08; -37.1329      
   4.07400000000E+08; -37.6671      
   4.07450000000E+08; -37.7038      
   4.07500000000E+08; -36.0335      
   4.07550000000E+08; -36.1583      
   4.07600000000E+08; -35.8244      
   4.07650000000E+08; -36.3001      
   4.07700000000E+08; -36.1727      
   4.07750000000E+08; -36.2194      
   4.07800000000E+08; -35.4674      
   4.07850000000E+08; -35.242       
   4.07900000000E+08; -36.4259      
   4.07950000000E+08; -36.7299      
   4.08000000000E+08; -37.3046      
   4.08050000000E+08; -36.5228      
   4.08100000000E+08; -36.355       
   4.08150000000E+08; -35.7841      
   4.08200000000E+08; -36.4129      
   4.08250000000E+08; -36.187       
   4.08300000000E+08; -36.1741      
   4.08350000000E+08; -35.6165      
   4.08400000000E+08; -36.388       
   4.08450000000E+08; -37.6606      
   4.08500000000E+08; -37.7541      
   4.08550000000E+08; -35.3557      
   4.08600000000E+08; -35.9508      
   4.08650000000E+08; -36.6421      
   4.08700000000E+08; -37.5716      
   4.08750000000E+08; -37.354       
   4.08800000000E+08; -34.9986      
   4.08850000000E+08; -35.7947      
   4.08900000000E+08; -36.356       
   4.08950000000E+08; -36.1914      
   4.09000000000E+08; -36.0949      
   4.09050000000E+08; -35.7035      
   4.09100000000E+08; -36.578       
   4.09150000000E+08; -36.6726      
   4.09200000000E+08; -37.219       
   4.09250000000E+08; -36.5502      
   4.09300000000E+08; -36.6413      
   4.09350000000E+08; -37.2987      
   4.09400000000E+08; -37.1732      
   4.09450000000E+08; -37.6053      
   4.09500000000E+08; -36.5812      
   4.09550000000E+08; -36.4826      
   4.09600000000E+08; -36.1         
   4.09650000000E+08; -36.2887      
   4.09700000000E+08; -36.9205      
   4.09750000000E+08; -36.4505      
   4.09800000000E+08; -36.9194      
   4.09850000000E+08; -36.9147      
   4.09900000000E+08; -36.6567      
   4.09950000000E+08; -37.596       
   4.10000000000E+08; -38.2971      
   4.10050000000E+08; -38.2903      
   4.10100000000E+08; -37.1913      
   4.10150000000E+08; -36.7412      
   4.10200000000E+08; -36.2831      
   4.10250000000E+08; -36.662       
   4.10300000000E+08; -35.9497      
   4.10350000000E+08; -36.0126      
   4.10400000000E+08; -36.6986      
   4.10450000000E+08; -35.2429      
   4.10500000000E+08; -35.0702      
   4.10550000000E+08; -33.5054      
   4.10600000000E+08; -33.6703      
   4.10650000000E+08; -32.9779      
   4.10700000000E+08; -33.0598      
   4.10750000000E+08; -32.581       
   4.10800000000E+08; -33.0297      
   4.10850000000E+08; -33.3437      
   4.10900000000E+08; -33.1163      
   4.10950000000E+08; -33.2565      
   4.11000000000E+08; -34.0253      
   4.11050000000E+08; -33.1338      
   4.11100000000E+08; -33.0113      
   4.11150000000E+08; -33.1269      
   4.11200000000E+08; -33.092       
   4.11250000000E+08; -32.9459      
   4.11300000000E+08; -33.1486      
   4.11350000000E+08; -32.9035      
   4.11400000000E+08; -32.492       
   4.11450000000E+08; -32.8605      
   4.11500000000E+08; -32.6052      
   4.11550000000E+08; -32.4094      
   4.11600000000E+08; -32.3221      
   4.11650000000E+08; -32.43        
   4.11700000000E+08; -32.3611      
   4.11750000000E+08; -32.6497      
   4.11800000000E+08; -33.4532      
   4.11850000000E+08; -33.6367      
   4.11900000000E+08; -33.0784      
   4.11950000000E+08; -33.8404      
   4.12000000000E+08; -34.2608      
   4.12050000000E+08; -34.8339      
   4.12100000000E+08; -34.0836      
   4.12150000000E+08; -34.3776      
   4.12200000000E+08; -34.9063      
   4.12250000000E+08; -33.8863      
   4.12300000000E+08; -34.0681      
   4.12350000000E+08; -34.0733      
   4.12400000000E+08; -34.2064      
   4.12450000000E+08; -33.9188      
   4.12500000000E+08; -33.7895      
   4.12550000000E+08; -33.7519      
   4.12600000000E+08; -33.9631      
   4.12650000000E+08; -33.5706      
   4.12700000000E+08; -33.7916      
   4.12750000000E+08; -34.7482      
   4.12800000000E+08; -34.95        
   4.12850000000E+08; -34.6304      
   4.12900000000E+08; -34.3896      
   4.12950000000E+08; -34.6897      
   4.13000000000E+08; -34.3165      
   4.13050000000E+08; -33.7548      
   4.13100000000E+08; -33.0062      
   4.13150000000E+08; -32.5654      
   4.13200000000E+08; -32.0634      
   4.13250000000E+08; -31.6497      
   4.13300000000E+08; -30.9239      
   4.13350000000E+08; -30.2596      
   4.13400000000E+08; -30.2181      
   4.13450000000E+08; -29.7636      
   4.13500000000E+08; -29.9729      
   4.13550000000E+08; -29.3266      
   4.13600000000E+08; -29.0472      
   4.13650000000E+08; -28.4457      
   4.13700000000E+08; -28.2259      
   4.13750000000E+08; -27.5318      
   4.13800000000E+08; -27.2669      
   4.13850000000E+08; -26.9239      
   4.13900000000E+08; -26.5609      
   4.13950000000E+08; -26.2187      
   4.14000000000E+08; -25.5069      
   4.14050000000E+08; -24.4787      
   4.14100000000E+08; -23.0948      
   4.14150000000E+08; -22.1891      
   4.14200000000E+08; -21.7109      
   4.14250000000E+08; -21.0854      
   4.14300000000E+08; -20.1549      
   4.14350000000E+08; -18.01        
   4.14400000000E+08; -16.1783      
   4.14450000000E+08; -14.3227      
   4.14500000000E+08; -12.747       
   4.14550000000E+08; -11.2474      
   4.14600000000E+08; -10.0436      
   4.14650000000E+08; -12.2449      
   4.14700000000E+08; -15.6595      
   4.14750000000E+08; -16.1865      
   4.14800000000E+08; -13.9216      
   4.14850000000E+08; -14.6718      
   4.14900000000E+08; -14.0901      
   4.14950000000E+08; -14.358       
   4.15000000000E+08; -15.2426      
   4.15050000000E+08; -17.4091      
   4.15100000000E+08; -19.5687      
   4.15150000000E+08; -21.6975      
   4.15200000000E+08; -23.944       
   4.15250000000E+08; -24.309       
   4.15300000000E+08; -25.3874      
   4.15350000000E+08; -25.8703      
   4.15400000000E+08; -25.9774      
   4.15450000000E+08; -27.6811      
   4.15500000000E+08; -28.8947      
   4.15550000000E+08; -29.237       
   4.15600000000E+08; -29.3482      
   4.15650000000E+08; -30.7111      
   4.15700000000E+08; -31.1962      
   4.15750000000E+08; -32.3848      
   4.15800000000E+08; -31.8374      
   4.15850000000E+08; -32.0395      
   4.15900000000E+08; -32.8822      
   4.15950000000E+08; -33.9793      
   4.16000000000E+08; -37.0038      
   4.16050000000E+08; -38.8472      
   4.16100000000E+08; -36.5394      
   4.16150000000E+08; -35.5479      
   4.16200000000E+08; -34.0319      
   4.16250000000E+08; -33.7719      
   4.16300000000E+08; -32.1688      
   4.16350000000E+08; -31.2489      
   4.16400000000E+08; -30.4993      
   4.16450000000E+08; -28.8722      
   4.16500000000E+08; -27.8966      
   4.16550000000E+08; -26.2116      
   4.16600000000E+08; -25.0333      
   4.16650000000E+08; -23.2131      
   4.16700000000E+08; -21.6315      
   4.16750000000E+08; -20.3814      
   4.16800000000E+08; -18.5533      
   4.16850000000E+08; -16.797       
   4.16900000000E+08; -15.2365      
   4.16950000000E+08; -13.9304      
   4.17000000000E+08; -13.1422      
   4.17050000000E+08; -12.3763      
   4.17100000000E+08; -11.7758      
   4.17150000000E+08; -10.7493      
   4.17200000000E+08; -9.70292      
   4.17250000000E+08; -7.71011      
   4.17300000000E+08; -5.1882       
   4.17350000000E+08; -3.60738      
   4.17400000000E+08; -2.4482       
   4.17450000000E+08; -1.40994      
   4.17500000000E+08; -1.03512      
   4.17550000000E+08; -1.039        
   4.17600000000E+08; -0.113775     
   4.17650000000E+08;  0.864279     
   4.17700000000E+08;  0.196457     
   4.17750000000E+08; -1.39517      
   4.17800000000E+08; -2.81683      
   4.17850000000E+08; -4.57689      
   4.17900000000E+08; -6.13241      
   4.17950000000E+08; -7.9727       
   4.18000000000E+08; -9.69478      
   4.18050000000E+08; -11.7929      
   4.18100000000E+08; -12.0652      
   4.18150000000E+08; -12.5879      
   4.18200000000E+08; -12.6552      
   4.18250000000E+08; -14.3514      
   4.18300000000E+08; -14.7993      
   4.18350000000E+08; -16.49        
   4.18400000000E+08; -18.5289      
   4.18450000000E+08; -20.2103      
   4.18500000000E+08; -21.7964      
   4.18550000000E+08; -23.56        
   4.18600000000E+08; -25.1273      
   4.18650000000E+08; -26.0198      
   4.18700000000E+08; -27.499       
   4.18750000000E+08; -27.6297      
   4.18800000000E+08; -29.731       
   4.18850000000E+08; -32.1523      
   4.18900000000E+08; -32.5672      
   4.18950000000E+08; -32.3046      
   4.19000000000E+08; -31.2028      
   4.19050000000E+08; -29.2673      
   4.19100000000E+08; -27.0012      
   4.19150000000E+08; -24.6413      
   4.19200000000E+08; -22.3813      
   4.19250000000E+08; -20.8508      
   4.19300000000E+08; -19.9282      
   4.19350000000E+08; -18.5851      
   4.19400000000E+08; -17.4765      
   4.19450000000E+08; -15.8267      
   4.19500000000E+08; -13.3477      
   4.19550000000E+08; -10.24        
   4.19600000000E+08; -7.12065      
   4.19650000000E+08; -4.05934      
   4.19700000000E+08; -1.33141      
   4.19750000000E+08;  0.385356     
   4.19800000000E+08;  1.5401       
   4.19850000000E+08;  1.93773      
   4.19900000000E+08;  3.45382      
   4.19950000000E+08;  3.62369      
   4.20000000000E+08;  2.96954      
   4.20050000000E+08;  2.80403      
   4.20100000000E+08;  1.99824      
   4.20150000000E+08; -0.185741     
   4.20200000000E+08; -2.90696      
   4.20250000000E+08; -5.05631      
   4.20300000000E+08; -6.74328      
   4.20350000000E+08; -8.6751       
   4.20400000000E+08; -11.2369      
   4.20450000000E+08; -14.2577      
   4.20500000000E+08; -17.3478      
   4.20550000000E+08; -21.0697      
   4.20600000000E+08; -25.076       
   4.20650000000E+08; -28.997       
   4.20700000000E+08; -29.8013      
   4.20750000000E+08; -26.9757      
   4.20800000000E+08; -23.667       
   4.20850000000E+08; -20.5576      
   4.20900000000E+08; -17.8461      
   4.20950000000E+08; -15.5015      
   4.21000000000E+08; -12.9182      
   4.21050000000E+08; -10.4279      
   4.21100000000E+08; -8.11482      
   4.21150000000E+08; -6.04306      
   4.21200000000E+08; -4.19966      
   4.21250000000E+08; -2.36033      
   4.21300000000E+08; -0.568094     
   4.21350000000E+08;  1.09373      
   4.21400000000E+08;  2.68062      
   4.21450000000E+08;  4.22623      
   4.21500000000E+08;  5.74129      
   4.21550000000E+08;  7.18842      
   4.21600000000E+08;  8.51766      
   4.21650000000E+08;  9.8052       
   4.21700000000E+08;  10.9957      
   4.21750000000E+08;  12.1043      
   4.21800000000E+08;  13.1131      
   4.21850000000E+08;  13.9869      
   4.21900000000E+08;  14.736       
   4.21950000000E+08;  15.3757      
   4.22000000000E+08;  15.9467      
   4.22050000000E+08;  16.4642      
   4.22100000000E+08;  16.8707      
   4.22150000000E+08;  17.2318      
   4.22200000000E+08;  17.5482      
   4.22250000000E+08;  17.808       
   4.22300000000E+08;  18.0403      
   4.22350000000E+08;  18.2362      
   4.22400000000E+08;  18.396       
   4.22450000000E+08;  18.5248      
   4.22500000000E+08;  18.6488      
   4.22550000000E+08;  18.7729      
   4.22600000000E+08;  18.8604      
   4.22650000000E+08;  18.9547      
   4.22700000000E+08;  19.0478      
   4.22750000000E+08;  19.1307      
   4.22800000000E+08;  19.1964      
   4.22850000000E+08;  19.2281      
   4.22900000000E+08;  19.2732      
   4.22950000000E+08;  19.3113      
   4.23000000000E+08;  19.3469      
   4.23050000000E+08;  19.3808      
   4.23100000000E+08;  19.4291      
   4.23150000000E+08;  19.4801      
   4.23200000000E+08;  19.5276      
   4.23250000000E+08;  19.5645      
   4.23300000000E+08;  19.6069      
   4.23350000000E+08;  19.6326      
   4.23400000000E+08;  19.6541      
   4.23450000000E+08;  19.6706      
   4.23500000000E+08;  19.6811      
   4.23550000000E+08;  19.6803      
   4.23600000000E+08;  19.6655      
   4.23650000000E+08;  19.6505      
   4.23700000000E+08;  19.632       
   4.23750000000E+08;  19.6158      
   4.23800000000E+08;  19.6158      
   4.23850000000E+08;  19.6223      
   4.23900000000E+08;  19.6629      
   4.23950000000E+08;  19.7096      
   4.24000000000E+08;  19.7287      
   4.24050000000E+08;  19.7507      
   4.24100000000E+08;  19.7721      
   4.24150000000E+08;  19.7861      
   4.24200000000E+08;  19.7994      
   4.24250000000E+08;  19.8227      
   4.24300000000E+08;  19.8456      
   4.24350000000E+08;  19.8608      
   4.24400000000E+08;  19.8793      
   4.24450000000E+08;  19.8979      
   4.24500000000E+08;  19.923       
   4.24550000000E+08;  19.9506      
   4.24600000000E+08;  19.9843      
   4.24650000000E+08;  20.0101      
   4.24700000000E+08;  20.0413      
   4.24750000000E+08;  20.0651      
   4.24800000000E+08;  20.0833      
   4.24850000000E+08;  20.0947      
   4.24900000000E+08;  20.1069      
   4.24950000000E+08;  20.1011      
   4.25000000000E+08;  20.1046      
   4.25050000000E+08;  20.1237      
   4.25100000000E+08;  20.143       
   4.25150000000E+08;  20.1729      
   4.25200000000E+08;  20.2011      
   4.25250000000E+08;  20.2307      
   4.25300000000E+08;  20.2547      
   4.25350000000E+08;  20.2782      
   4.25400000000E+08;  20.2951      
   4.25450000000E+08;  20.3097      
   4.25500000000E+08;  20.3226      
   4.25550000000E+08;  20.3378      
   4.25600000000E+08;  20.3499      
   4.25650000000E+08;  20.3523      
   4.25700000000E+08;  20.3481      
   4.25750000000E+08;  20.3449      
   4.25800000000E+08;  20.3431      
   4.25850000000E+08;  20.3403      
   4.25900000000E+08;  20.3269      
   4.25950000000E+08;  20.3022      
   4.26000000000E+08;  20.269       
   4.26050000000E+08;  20.2464      
   4.26100000000E+08;  20.2161      
   4.26150000000E+08;  20.207       
   4.26200000000E+08;  20.2011      
   4.26250000000E+08;  20.1974      
   4.26300000000E+08;  20.1982      
   4.26350000000E+08;  20.2061      
   4.26400000000E+08;  20.2037      
   4.26450000000E+08;  20.1977      
   4.26500000000E+08;  20.1881      
   4.26550000000E+08;  20.1737      
   4.26600000000E+08;  20.1717      
   4.26650000000E+08;  20.1698      
   4.26700000000E+08;  20.1556      
   4.26750000000E+08;  20.1525      
   4.26800000000E+08;  20.1332      
   4.26850000000E+08;  20.1154      
   4.26900000000E+08;  20.103       
   4.26950000000E+08;  20.0834      
   4.27000000000E+08;  20.0652      
   4.27050000000E+08;  20.0407      
   4.27100000000E+08;  20.0122      
   4.27150000000E+08;  19.9884      
   4.27200000000E+08;  19.9517      
   4.27250000000E+08;  19.9275      
   4.27300000000E+08;  19.8882      
   4.27350000000E+08;  19.8751      
   4.27400000000E+08;  19.871       
   4.27450000000E+08;  19.8738      
   4.27500000000E+08;  19.8805      
   4.27550000000E+08;  19.8759      
   4.27600000000E+08;  19.8573      
   4.27650000000E+08;  19.8408      
   4.27700000000E+08;  19.8321      
   4.27750000000E+08;  19.8291      
   4.27800000000E+08;  19.8213      
   4.27850000000E+08;  19.8055      
   4.27900000000E+08;  19.7997      
   4.27950000000E+08;  19.7998      
   4.28000000000E+08;  19.8049      
   4.28050000000E+08;  19.8056      
   4.28100000000E+08;  19.8098      
   4.28150000000E+08;  19.8295      
   4.28200000000E+08;  19.8388      
   4.28250000000E+08;  19.841       
   4.28300000000E+08;  19.8394      
   4.28350000000E+08;  19.8405      
   4.28400000000E+08;  19.8495      
   4.28450000000E+08;  19.8547      
   4.28500000000E+08;  19.8658      
   4.28550000000E+08;  19.8692      
   4.28600000000E+08;  19.8681      
   4.28650000000E+08;  19.8607      
   4.28700000000E+08;  19.852       
   4.28750000000E+08;  19.8394      
   4.28800000000E+08;  19.8235      
   4.28850000000E+08;  19.8123      
   4.28900000000E+08;  19.8105      
   4.28950000000E+08;  19.8147      
   4.29000000000E+08;  19.8221      
   4.29050000000E+08;  19.8213      
   4.29100000000E+08;  19.8216      
   4.29150000000E+08;  19.8396      
   4.29200000000E+08;  19.8767      
   4.29250000000E+08;  19.9124      
   4.29300000000E+08;  19.9494      
   4.29350000000E+08;  19.9771      
   4.29400000000E+08;  19.9919      
   4.29450000000E+08;  20.0136      
   4.29500000000E+08;  20.0407      
   4.29550000000E+08;  20.0713      
   4.29600000000E+08;  20.1021      
   4.29650000000E+08;  20.1388      
   4.29700000000E+08;  20.1711      
   4.29750000000E+08;  20.1914      
   4.29800000000E+08;  20.2071      
   4.29850000000E+08;  20.2044      
   4.29900000000E+08;  20.1951      
   4.29950000000E+08;  20.2015      
   4.30000000000E+08;  20.23        
   4.30050000000E+08;  20.2596      
   4.30100000000E+08;  20.2849      
   4.30150000000E+08;  20.3002      
   4.30200000000E+08;  20.321       
   4.30250000000E+08;  20.3393      
   4.30300000000E+08;  20.353       
   4.30350000000E+08;  20.3543      
   4.30400000000E+08;  20.3625      
   4.30450000000E+08;  20.3693      
   4.30500000000E+08;  20.3704      
   4.30550000000E+08;  20.3744      
   4.30600000000E+08;  20.379       
   4.30650000000E+08;  20.4095      
   4.30700000000E+08;  20.4562      
   4.30750000000E+08;  20.5059      
   4.30800000000E+08;  20.5509      
   4.30850000000E+08;  20.5977      
   4.30900000000E+08;  20.6377      
   4.30950000000E+08;  20.659       
   4.31000000000E+08;  20.6887      
   4.31050000000E+08;  20.6993      
   4.31100000000E+08;  20.7208      
   4.31150000000E+08;  20.7277      
   4.31200000000E+08;  20.7404      
   4.31250000000E+08;  20.7487      
   4.31300000000E+08;  20.7475      
   4.31350000000E+08;  20.7477      
   4.31400000000E+08;  20.7495      
   4.31450000000E+08;  20.7519      
   4.31500000000E+08;  20.7375      
   4.31550000000E+08;  20.7218      
   4.31600000000E+08;  20.7096      
   4.31650000000E+08;  20.7057      
   4.31700000000E+08;  20.7162      
   4.31750000000E+08;  20.7164      
   4.31800000000E+08;  20.7251      
   4.31850000000E+08;  20.7212      
   4.31900000000E+08;  20.7078      
   4.31950000000E+08;  20.6961      
   4.32000000000E+08;  20.6767      
   4.32050000000E+08;  20.6406      
   4.32100000000E+08;  20.5904      
   4.32150000000E+08;  20.5524      
   4.32200000000E+08;  20.5324      
   4.32250000000E+08;  20.5269      
   4.32300000000E+08;  20.5105      
   4.32350000000E+08;  20.4796      
   4.32400000000E+08;  20.4544      
   4.32450000000E+08;  20.4262      
   4.32500000000E+08;  20.3897      
   4.32550000000E+08;  20.3654      
   4.32600000000E+08;  20.3525      
   4.32650000000E+08;  20.3575      
   4.32700000000E+08;  20.354       
   4.32750000000E+08;  20.3617      
   4.32800000000E+08;  20.3588      
   4.32850000000E+08;  20.3582      
   4.32900000000E+08;  20.359       
   4.32950000000E+08;  20.3609      
   4.33000000000E+08;  20.3584      
   4.33050000000E+08;  20.3457      
   4.33100000000E+08;  20.3301      
   4.33150000000E+08;  20.2982      
   4.33200000000E+08;  20.2608      
   4.33250000000E+08;  20.228       
   4.33300000000E+08;  20.1916      
   4.33350000000E+08;  20.1563      
   4.33400000000E+08;  20.1233      
   4.33450000000E+08;  20.0762      
   4.33500000000E+08;  20.0358      
   4.33550000000E+08;  19.9849      
   4.33600000000E+08;  19.9425      
   4.33650000000E+08;  19.8724      
   4.33700000000E+08;  19.7874      
   4.33750000000E+08;  19.7256      
   4.33800000000E+08;  19.6612      
   4.33850000000E+08;  19.6208      
   4.33900000000E+08;  19.5732      
   4.33950000000E+08;  19.5331      
   4.34000000000E+08;  19.5058      
   4.34050000000E+08;  19.4835      
   4.34100000000E+08;  19.4587      
   4.34150000000E+08;  19.4507      
   4.34200000000E+08;  19.4207      
   4.34250000000E+08;  19.4206      
   4.34300000000E+08;  19.4376      
   4.34350000000E+08;  19.4412      
   4.34400000000E+08;  19.4546      
   4.34450000000E+08;  19.4507      
   4.34500000000E+08;  19.435       
   4.34550000000E+08;  19.4183      
   4.34600000000E+08;  19.3806      
   4.34650000000E+08;  19.353       
   4.34700000000E+08;  19.3205      
   4.34750000000E+08;  19.281       
   4.34800000000E+08;  19.2452      
   4.34850000000E+08;  19.2079      
   4.34900000000E+08;  19.1842      
   4.34950000000E+08;  19.1354      
   4.35000000000E+08;  19.1091      
   4.35050000000E+08;  19.0908      
   4.35100000000E+08;  19.0679      
   4.35150000000E+08;  19.0498      
   4.35200000000E+08;  19.0431      
   4.35250000000E+08;  19.0192      
   4.35300000000E+08;  18.9868      
   4.35350000000E+08;  18.9687      
   4.35400000000E+08;  18.9596      
   4.35450000000E+08;  18.9648      
   4.35500000000E+08;  18.955       
   4.35550000000E+08;  18.9411      
   4.35600000000E+08;  18.9434      
   4.35650000000E+08;  18.9593      
   4.35700000000E+08;  18.9551      
   4.35750000000E+08;  18.9528      
   4.35800000000E+08;  18.9389      
   4.35850000000E+08;  18.9337      
   4.35900000000E+08;  18.9446      
   4.35950000000E+08;  18.9665      
   4.36000000000E+08;  18.9849      
   4.36050000000E+08;  18.9763      
   4.36100000000E+08;  18.9636      
   4.36150000000E+08;  18.9584      
   4.36200000000E+08;  18.9492      
   4.36250000000E+08;  18.9188      
   4.36300000000E+08;  18.919       
   4.36350000000E+08;  18.9187      
   4.36400000000E+08;  18.9281      
   4.36450000000E+08;  18.9395      
   4.36500000000E+08;  18.9512      
   4.36550000000E+08;  18.9626      
   4.36600000000E+08;  18.984       
   4.36650000000E+08;  19.0116      
   4.36700000000E+08;  19.0345      
   4.36750000000E+08;  19.0646      
   4.36800000000E+08;  19.0821      
   4.36850000000E+08;  19.0574      
   4.36900000000E+08;  19.0161      
   4.36950000000E+08;  18.9394      
   4.37000000000E+08;  18.8943      
   4.37050000000E+08;  18.8699      
   4.37100000000E+08;  18.8598      
   4.37150000000E+08;  18.8769      
   4.37200000000E+08;  18.9171      
   4.37250000000E+08;  18.9687      
   4.37300000000E+08;  18.9957      
   4.37350000000E+08;  19.0241      
   4.37400000000E+08;  19.0593      
   4.37450000000E+08;  19.0833      
   4.37500000000E+08;  19.1273      
   4.37550000000E+08;  19.1747      
   4.37600000000E+08;  19.23        
   4.37650000000E+08;  19.2702      
   4.37700000000E+08;  19.2989      
   4.37750000000E+08;  19.3247      
   4.37800000000E+08;  19.3415      
   4.37850000000E+08;  19.3578      
   4.37900000000E+08;  19.3737      
   4.37950000000E+08;  19.4144      
   4.38000000000E+08;  19.4638      
   4.38050000000E+08;  19.5097      
   4.38100000000E+08;  19.5462      
   4.38150000000E+08;  19.5696      
   4.38200000000E+08;  19.6042      
   4.38250000000E+08;  19.6346      
   4.38300000000E+08;  19.6433      
   4.38350000000E+08;  19.6596      
   4.38400000000E+08;  19.6051      
   4.38450000000E+08;  19.5943      
   4.38500000000E+08;  19.5832      
   4.38550000000E+08;  19.6052      
   4.38600000000E+08;  19.6279      
   4.38650000000E+08;  19.6334      
   4.38700000000E+08;  19.6287      
   4.38750000000E+08;  19.6106      
   4.38800000000E+08;  19.6013      
   4.38850000000E+08;  19.5869      
   4.38900000000E+08;  19.5675      
   4.38950000000E+08;  19.612       
   4.39000000000E+08;  19.6933      
   4.39050000000E+08;  19.796       
   4.39100000000E+08;  19.8509      
   4.39150000000E+08;  19.9253      
   4.39200000000E+08;  20.0167      
   4.39250000000E+08;  20.0813      
   4.39300000000E+08;  20.1228      
   4.39350000000E+08;  20.1443      
   4.39400000000E+08;  20.1919      
   4.39450000000E+08;  20.2509      
   4.39500000000E+08;  20.2709      
   4.39550000000E+08;  20.2541      
   4.39600000000E+08;  20.1458      
   4.39650000000E+08;  20.1046      
   4.39700000000E+08;  20.1329      
   4.39750000000E+08;  20.1655      
   4.39800000000E+08;  20.2267      
   4.39850000000E+08;  20.2328      
   4.39900000000E+08;  20.2131      
   4.39950000000E+08;  20.1914      
   4.40000000000E+08;  20.1616      
   4.40050000000E+08;  20.1014      
   4.40100000000E+08;  20.029       
   4.40150000000E+08;  19.966       
   4.40200000000E+08;  19.9172      
   4.40250000000E+08;  19.842       
   4.40300000000E+08;  19.7831      
   4.40350000000E+08;  19.7169      
   4.40400000000E+08;  19.7135      
   4.40450000000E+08;  19.771       
   4.40500000000E+08;  19.8861      
   4.40550000000E+08;  19.9965      
   4.40600000000E+08;  20.0321      
   4.40650000000E+08;  20.0286      
   4.40700000000E+08;  20.03        
   4.40750000000E+08;  20.0695      
   4.40800000000E+08;  20.1212      
   4.40850000000E+08;  20.1423      
   4.40900000000E+08;  20.1438      
   4.40950000000E+08;  20.1353      
   4.41000000000E+08;  20.1354      
   4.41050000000E+08;  20.1023      
   4.41100000000E+08;  20.0859      
   4.41150000000E+08;  20.0902      
   4.41200000000E+08;  20.0928      
   4.41250000000E+08;  20.0604      
   4.41300000000E+08;  20.0049      
   4.41350000000E+08;  19.9608      
   4.41400000000E+08;  19.8783      
   4.41450000000E+08;  19.7756      
   4.41500000000E+08;  19.6938      
   4.41550000000E+08;  19.6488      
   4.41600000000E+08;  19.6095      
   4.41650000000E+08;  19.573       
   4.41700000000E+08;  19.4782      
   4.41750000000E+08;  19.4557      
   4.41800000000E+08;  19.4474      
   4.41850000000E+08;  19.4514      
   4.41900000000E+08;  19.4201      
   4.41950000000E+08;  19.3209      
   4.42000000000E+08;  19.256       
   4.42050000000E+08;  19.2649      
   4.42100000000E+08;  19.302       
   4.42150000000E+08;  19.3572      
   4.42200000000E+08;  19.3448      
   4.42250000000E+08;  19.3055      
   4.42300000000E+08;  19.2586      
   4.42350000000E+08;  19.2773      
   4.42400000000E+08;  19.3373      
   4.42450000000E+08;  19.3874      
   4.42500000000E+08;  19.3734      
   4.42550000000E+08;  19.3414      
   4.42600000000E+08;  19.3028      
   4.42650000000E+08;  19.2851      
   4.42700000000E+08;  19.2765      
   4.42750000000E+08;  19.2991      
   4.42800000000E+08;  19.3361      
   4.42850000000E+08;  19.3539      
   4.42900000000E+08;  19.3461      
   4.42950000000E+08;  19.2929      
   4.43000000000E+08;  19.2207      
   4.43050000000E+08;  19.1901      
   4.43100000000E+08;  19.2113      
   4.43150000000E+08;  19.2344      
   4.43200000000E+08;  19.2141      
   4.43250000000E+08;  19.1335      
   4.43300000000E+08;  19.0124      
   4.43350000000E+08;  18.9147      
   4.43400000000E+08;  18.8831      
   4.43450000000E+08;  18.8859      
   4.43500000000E+08;  18.8733      
   4.43550000000E+08;  18.8606      
   4.43600000000E+08;  18.8576      
   4.43650000000E+08;  18.8519      
   4.43700000000E+08;  18.7884      
   4.43750000000E+08;  18.7446      
   4.43800000000E+08;  18.7923      
   4.43850000000E+08;  18.9243      
   4.43900000000E+08;  19.1004      
   4.43950000000E+08;  19.2166      
   4.44000000000E+08;  19.2856      
   4.44050000000E+08;  19.3361      
   4.44100000000E+08;  19.4013      
   4.44150000000E+08;  19.4475      
   4.44200000000E+08;  19.5231      
   4.44250000000E+08;  19.5574      
   4.44300000000E+08;  19.5733      
   4.44350000000E+08;  19.5767      
   4.44400000000E+08;  19.5721      
   4.44450000000E+08;  19.5823      
   4.44500000000E+08;  19.5402      
   4.44550000000E+08;  19.4984      
   4.44600000000E+08;  19.4479      
   4.44650000000E+08;  19.3105      
   4.44700000000E+08;  19.1233      
   4.44750000000E+08;  18.8793      
   4.44800000000E+08;  18.6         
   4.44850000000E+08;  18.3105      
   4.44900000000E+08;  18.0402      
   4.44950000000E+08;  17.8472      
   4.45000000000E+08;  17.9292      
   4.45050000000E+08;  18.0608      
   4.45100000000E+08;  18.1997      
   4.45150000000E+08;  18.315       
   4.45200000000E+08;  18.4529      
   4.45250000000E+08;  18.5614      
   4.45300000000E+08;  18.7288      
   4.45350000000E+08;  18.8713      
   4.45400000000E+08;  18.9694      
   4.45450000000E+08;  19.0045      
   4.45500000000E+08;  18.9852      
   4.45550000000E+08;  18.9157      
   4.45600000000E+08;  18.7661      
   4.45650000000E+08;  18.5481      
   4.45700000000E+08;  18.3408      
   4.45750000000E+08;  18.0707      
   4.45800000000E+08;  17.8088      
   4.45850000000E+08;  17.5453      
   4.45900000000E+08;  17.2953      
   4.45950000000E+08;  17.0333      
   4.46000000000E+08;  16.8254      
   4.46050000000E+08;  16.6589      
   4.46100000000E+08;  16.5268      
   4.46150000000E+08;  16.4333      
   4.46200000000E+08;  16.2772      
   4.46250000000E+08;  16.0937      
   4.46300000000E+08;  15.9452      
   4.46350000000E+08;  15.8223      
   4.46400000000E+08;  15.6614      
   4.46450000000E+08;  15.3651      
   4.46500000000E+08;  15.0649      
   4.46550000000E+08;  14.858       
   4.46600000000E+08;  14.7288      
   4.46650000000E+08;  14.5913      
   4.46700000000E+08;  14.38        
   4.46750000000E+08;  14.0653      
   4.46800000000E+08;  13.7235      
   4.46850000000E+08;  13.3781      
   4.46900000000E+08;  13.0835      
   4.46950000000E+08;  12.8776      
   4.47000000000E+08;  12.7005      
   4.47050000000E+08;  12.435       
   4.47100000000E+08;  12.0934      
   4.47150000000E+08;  11.9651      
   4.47200000000E+08;  12.0287      
   4.47250000000E+08;  12.0228      
   4.47300000000E+08;  12.0684      
   4.47350000000E+08;  12.1544      
   4.47400000000E+08;  11.9904      
   4.47450000000E+08;  11.7107      
   4.47500000000E+08;  11.3843      
   4.47550000000E+08;  11.0194      
   4.47600000000E+08;  10.6642      
   4.47650000000E+08;  10.2829      
   4.47700000000E+08;  9.93015      
   4.47750000000E+08;  9.64208      
   4.47800000000E+08;  9.33806      
   4.47850000000E+08;  9.04711      
   4.47900000000E+08;  8.77044      
   4.47950000000E+08;  8.51447      
   4.48000000000E+08;  8.25274      
   4.48050000000E+08;  7.96011      
   4.48100000000E+08;  7.69441      
   4.48150000000E+08;  7.50988      
   4.48200000000E+08;  7.39579      
   4.48250000000E+08;  7.30655      
   4.48300000000E+08;  7.19093      
   4.48350000000E+08;  7.06237      
   4.48400000000E+08;  6.88126      
   4.48450000000E+08;  6.64673      
   4.48500000000E+08;  6.39353      
   4.48550000000E+08;  6.16567      
   4.48600000000E+08;  5.96834      
   4.48650000000E+08;  5.76895      
   4.48700000000E+08;  5.57951      
   4.48750000000E+08;  5.44523      
   4.48800000000E+08;  5.28684      
   4.48850000000E+08;  5.08154      
   4.48900000000E+08;  4.91167      
   4.48950000000E+08;  4.68878      
   4.49000000000E+08;  4.3721       
   4.49050000000E+08;  4.10642      
   4.49100000000E+08;  3.8233       
   4.49150000000E+08;  3.56135      
   4.49200000000E+08;  3.37288      
   4.49250000000E+08;  3.24445      
   4.49300000000E+08;  3.09464      
   4.49350000000E+08;  2.94086      
   4.49400000000E+08;  2.75997      
   4.49450000000E+08;  2.5412       
   4.49500000000E+08;  2.35229      
   4.49550000000E+08;  2.185        
   4.49600000000E+08;  2.02088      
   4.49650000000E+08;  1.81344      
   4.49700000000E+08;  1.61316      
   4.49750000000E+08;  1.37534      
   4.49800000000E+08;  1.11759      
   4.49850000000E+08;  0.828124     
   4.49900000000E+08;  0.589418     
   4.49950000000E+08;  0.452334     
   4.50000000000E+08;  0.267006     
   4.50050000000E+08;  0.136231     
   4.50100000000E+08;  0.00797853   
   4.50150000000E+08; -0.129474     
   4.50200000000E+08; -0.242631     
   4.50250000000E+08; -0.330149     
   4.50300000000E+08; -0.443631     
   4.50350000000E+08; -0.506615     
   4.50400000000E+08; -0.646377     
   4.50450000000E+08; -0.785355     
   4.50500000000E+08; -0.914345     
   4.50550000000E+08; -0.991874     
   4.50600000000E+08; -1.07614      
   4.50650000000E+08; -1.22298      
   4.50700000000E+08; -1.4131       
   4.50750000000E+08; -1.62035      
   4.50800000000E+08; -1.86393      
   4.50850000000E+08; -2.13096      
   4.50900000000E+08; -2.43041      
   4.50950000000E+08; -2.72824      
   4.51000000000E+08; -2.99863      
   4.51050000000E+08; -3.22467      
   4.51100000000E+08; -3.41467      
   4.51150000000E+08; -3.63321      
   4.51200000000E+08; -3.77511      
   4.51250000000E+08; -3.86949      
   4.51300000000E+08; -3.85204      
   4.51350000000E+08; -3.94682      
   4.51400000000E+08; -4.06866      
   4.51450000000E+08; -4.23671      
   4.51500000000E+08; -4.43358      
   4.51550000000E+08; -4.69014      
   4.51600000000E+08; -4.99143      
   4.51650000000E+08; -5.33247      
   4.51700000000E+08; -5.76186      
   4.51750000000E+08; -6.078        
   4.51800000000E+08; -6.22405      
   4.51850000000E+08; -6.29411      
   4.51900000000E+08; -6.34516      
   4.51950000000E+08; -6.38476      
   4.52000000000E+08; -6.46352      
   4.52050000000E+08; -6.4907       
   4.52100000000E+08; -6.5792       
   4.52150000000E+08; -6.58658      
   4.52200000000E+08; -6.61031      
   4.52250000000E+08; -6.72539      
   4.52300000000E+08; -6.99774      
   4.52350000000E+08; -7.21849      
   4.52400000000E+08; -7.43937      
   4.52450000000E+08; -7.64812      
   4.52500000000E+08; -7.7908       
   4.52550000000E+08; -8.05025      
   4.52600000000E+08; -8.30251      
   4.52650000000E+08; -8.49124      
   4.52700000000E+08; -8.8289       
   4.52750000000E+08; -9.10004      
   4.52800000000E+08; -9.34278      
   4.52850000000E+08; -9.54792      
   4.52900000000E+08; -9.74583      
   4.52950000000E+08; -9.84568      
   4.53000000000E+08; -9.95428      
   4.53050000000E+08; -10.0188      
   4.53100000000E+08; -10.0466      
   4.53150000000E+08; -10.3026      
   4.53200000000E+08; -10.5126      
   4.53250000000E+08; -10.7745      
   4.53300000000E+08; -10.9042      
   4.53350000000E+08; -10.8684      
   4.53400000000E+08; -11.0078      
   4.53450000000E+08; -11.1912      
   4.53500000000E+08; -11.0017      
   4.53550000000E+08; -10.9622      
   4.53600000000E+08; -10.9267      
   4.53650000000E+08; -10.8679      
   4.53700000000E+08; -11.4117      
   4.53750000000E+08; -11.8159      
   4.53800000000E+08; -12.2554      
   4.53850000000E+08; -12.4573      
   4.53900000000E+08; -12.3768      
   4.53950000000E+08; -11.8539      
   4.54000000000E+08; -11.5502      
   4.54050000000E+08; -11.1965      
   4.54100000000E+08; -10.9907      
   4.54150000000E+08; -11.2704      
   4.54200000000E+08; -11.7025      
   4.54250000000E+08; -12.1663      
   4.54300000000E+08; -12.5316      
   4.54350000000E+08; -12.9788      
   4.54400000000E+08; -13.5151      
   4.54450000000E+08; -13.6754      
   4.54500000000E+08; -13.4013      
   4.54550000000E+08; -12.6137      
   4.54600000000E+08; -12.0749      
   4.54650000000E+08; -12.3018      
   4.54700000000E+08; -12.6459      
   4.54750000000E+08; -13.0557      
   4.54800000000E+08; -13.7257      
   4.54850000000E+08; -14.0768      
   4.54900000000E+08; -14.5349      
   4.54950000000E+08; -14.8179      
   4.55000000000E+08; -15.1398      
   4.55050000000E+08; -14.9401      
   4.55100000000E+08; -13.9251      
   4.55150000000E+08; -13.0287      
   4.55200000000E+08; -12.4094      
   4.55250000000E+08; -12.3148      
   4.55300000000E+08; -12.6256      
   4.55350000000E+08; -12.7219      
   4.55400000000E+08; -13.323       
   4.55450000000E+08; -14.0956      
   4.55500000000E+08; -14.722       
   4.55550000000E+08; -15.2744      
   4.55600000000E+08; -15.388       
   4.55650000000E+08; -15.5721      
   4.55700000000E+08; -15.2692      
   4.55750000000E+08; -14.7344      
   4.55800000000E+08; -14.3275      
   4.55850000000E+08; -14.1031      
   4.55900000000E+08; -14.1458      
   4.55950000000E+08; -14.1039      
   4.56000000000E+08; -14.4045      
   4.56050000000E+08; -14.9107      
   4.56100000000E+08; -15.4646      
   4.56150000000E+08; -16.0354      
   4.56200000000E+08; -16.6766      
   4.56250000000E+08; -17.3408      
   4.56300000000E+08; -17.9376      
   4.56350000000E+08; -18.3239      
   4.56400000000E+08; -17.996       
   4.56450000000E+08; -17.4395      
   4.56500000000E+08; -15.5366      
   4.56550000000E+08; -14.4755      
   4.56600000000E+08; -13.8344      
   4.56650000000E+08; -13.6009      
   4.56700000000E+08; -13.6989      
   4.56750000000E+08; -14.2068      
   4.56800000000E+08; -14.712       
   4.56850000000E+08; -15.1899      
   4.56900000000E+08; -15.7191      
   4.56950000000E+08; -16.1511      
   4.57000000000E+08; -16.476       
   4.57050000000E+08; -17.0415      
   4.57100000000E+08; -17.8186      
   4.57150000000E+08; -18.5414      
   4.57200000000E+08; -19.1306      
   4.57250000000E+08; -19.3073      
   4.57300000000E+08; -19.3396      
   4.57350000000E+08; -18.753       
   4.57400000000E+08; -18.4004      
   4.57450000000E+08; -17.877       
   4.57500000000E+08; -16.8437      
   4.57550000000E+08; -16.2708      
   4.57600000000E+08; -15.8345      
   4.57650000000E+08; -16.3811      
   4.57700000000E+08; -16.6644      
   4.57750000000E+08; -16.6516      
   4.57800000000E+08; -16.8188      
   4.57850000000E+08; -16.6053      
   4.57900000000E+08; -16.8781      
   4.57950000000E+08; -17.4447      
   4.58000000000E+08; -17.8631      
   4.58050000000E+08; -18.4423      
   4.58100000000E+08; -18.8135      
   4.58150000000E+08; -19.27        
   4.58200000000E+08; -19.6855      
   4.58250000000E+08; -19.7513      
   4.58300000000E+08; -19.9249      
   4.58350000000E+08; -19.6996      
   4.58400000000E+08; -18.3723      
   4.58450000000E+08; -17.9278      
   4.58500000000E+08; -17.8611      
   4.58550000000E+08; -17.6402      
   4.58600000000E+08; -17.3813      
   4.58650000000E+08; -17.181       
   4.58700000000E+08; -17.3058      
   4.58750000000E+08; -17.8782      
   4.58800000000E+08; -18.2166      
   4.58850000000E+08; -18.7954      
   4.58900000000E+08; -19.2954      
   4.58950000000E+08; -19.2879      
   4.59000000000E+08; -19.3282      
   4.59050000000E+08; -19.2759      
   4.59100000000E+08; -19.4377      
   4.59150000000E+08; -19.7378      
   4.59200000000E+08; -19.9685      
   4.59250000000E+08; -20.1423      
   4.59300000000E+08; -20.5887      
   4.59350000000E+08; -21.1008      
   4.59400000000E+08; -20.4619      
   4.59450000000E+08; -19.0419      
   4.59500000000E+08; -18.4476      
   4.59550000000E+08; -17.7263      
   4.59600000000E+08; -17.9012      
   4.59650000000E+08; -18.1283      
   4.59700000000E+08; -18.6782      
   4.59750000000E+08; -19.1047      
   4.59800000000E+08; -19.2538      
   4.59850000000E+08; -19.2742      
   4.59900000000E+08; -19.4647      
   4.59950000000E+08; -19.7873      
   4.60000000000E+08; -20.3161      
   4.60050000000E+08; -20.3296      
   4.60100000000E+08; -20.0985      
   4.60150000000E+08; -19.8809      
   4.60200000000E+08; -19.3723      
   4.60250000000E+08; -19.2666      
   4.60300000000E+08; -19.2218      
   4.60350000000E+08; -18.9703      
   4.60400000000E+08; -19.2202      
   4.60450000000E+08; -19.5556      
   4.60500000000E+08; -19.4633      
   4.60550000000E+08; -19.6744      
   4.60600000000E+08; -19.7709      
   4.60650000000E+08; -19.7276      
   4.60700000000E+08; -20.1919      
   4.60750000000E+08; -20.738       
   4.60800000000E+08; -21.9485      
   4.60850000000E+08; -22.307       
   4.60900000000E+08; -23.2855      
   4.60950000000E+08; -22.4997      
   4.61000000000E+08; -22.6966      
   4.61050000000E+08; -21.7859      
   4.61100000000E+08; -20.3585      
   4.61150000000E+08; -18.6432      
   4.61200000000E+08; -17.0472      
   4.61250000000E+08; -16.2814      
   4.61300000000E+08; -15.9337      
   4.61350000000E+08; -15.8032      
   4.61400000000E+08; -16.104       
   4.61450000000E+08; -16.649       
   4.61500000000E+08; -17.1631      
   4.61550000000E+08; -18.1303      
   4.61600000000E+08; -19.331       
   4.61650000000E+08; -20.0879      
   4.61700000000E+08; -20.6794      
   4.61750000000E+08; -21.4411      
   4.61800000000E+08; -21.8919      
   4.61850000000E+08; -22.888       
   4.61900000000E+08; -23.5385      
   4.61950000000E+08; -23.8967      
   4.62000000000E+08; -23.9901      
   4.62050000000E+08; -24.3793      
   4.62100000000E+08; -24.6719      
   4.62150000000E+08; -22.9374      
   4.62200000000E+08; -20.8833      
   4.62250000000E+08; -18.6889      
   4.62300000000E+08; -16.4583      
   4.62350000000E+08; -15.5194      
   4.62400000000E+08; -15.0803      
   4.62450000000E+08; -15.4301      
   4.62500000000E+08; -16.2204      
   4.62550000000E+08; -16.4878      
   4.62600000000E+08; -16.841       
   4.62650000000E+08; -17.7854      
   4.62700000000E+08; -19.063       
   4.62750000000E+08; -19.3408      
   4.62800000000E+08; -19.8145      
   4.62850000000E+08; -20.7574      
   4.62900000000E+08; -21.4745      
   4.62950000000E+08; -22.4732      
   4.63000000000E+08; -23.1671      
   4.63050000000E+08; -23.2881      
   4.63100000000E+08; -24.8324      
   4.63150000000E+08; -24.704       
   4.63200000000E+08; -23.1037      
   4.63250000000E+08; -21.269       
   4.63300000000E+08; -18.7444      
   4.63350000000E+08; -17.1451      
   4.63400000000E+08; -16.3305      
   4.63450000000E+08; -17.0248      
   4.63500000000E+08; -17.362       
   4.63550000000E+08; -17.8324      
   4.63600000000E+08; -18.2308      
   4.63650000000E+08; -18.4098      
   4.63700000000E+08; -18.8986      
   4.63750000000E+08; -19.0203      
   4.63800000000E+08; -19.0037      
   4.63850000000E+08; -18.8277      
   4.63900000000E+08; -19.235       
   4.63950000000E+08; -18.7543      
   4.64000000000E+08; -17.9859      
   4.64050000000E+08; -17.445       
   4.64100000000E+08; -17.5822      
   4.64150000000E+08; -17.9498      
   4.64200000000E+08; -18.8947      
   4.64250000000E+08; -19.7735      
   4.64300000000E+08; -20.7342      
   4.64350000000E+08; -22.6514      
   4.64400000000E+08; -23.0925      
   4.64450000000E+08; -23.3029      
   4.64500000000E+08; -24.0587      
   4.64550000000E+08; -23.7567      
   4.64600000000E+08; -22.5544      
   4.64650000000E+08; -21.2094      
   4.64700000000E+08; -19.1143      
   4.64750000000E+08; -17.6719      
   4.64800000000E+08; -17.1283      
   4.64850000000E+08; -17.7054      
   4.64900000000E+08; -17.6686      
   4.64950000000E+08; -17.0758      
   4.65000000000E+08; -18.1499      
   4.65050000000E+08; -18.4993      
   4.65100000000E+08; -18.6617      
   4.65150000000E+08; -18.9182      
   4.65200000000E+08; -19.1663      
   4.65250000000E+08; -19.3812      
   4.65300000000E+08; -19.8797      
   4.65350000000E+08; -21.0197      
   4.65400000000E+08; -20.9432      
   4.65450000000E+08; -20.9587      
   4.65500000000E+08; -21.0329      
   4.65550000000E+08; -21.0999      
   4.65600000000E+08; -20.8247      
   4.65650000000E+08; -20.1307      
   4.65700000000E+08; -20.0312      
   4.65750000000E+08; -19.2747      
   4.65800000000E+08; -19.6387      
   4.65850000000E+08; -20.0508      
   4.65900000000E+08; -20.9699      
   4.65950000000E+08; -20.9598      
   4.66000000000E+08; -20.398       
   4.66050000000E+08; -20.7806      
   4.66100000000E+08; -20.3575      
   4.66150000000E+08; -19.7437      
   4.66200000000E+08; -19.7053      
   4.66250000000E+08; -21.0183      
   4.66300000000E+08; -20.388       
   4.66350000000E+08; -21.3104      
   4.66400000000E+08; -21.5586      
   4.66450000000E+08; -20.9277      
   4.66500000000E+08; -20.4228      
   4.66550000000E+08; -19.9453      
   4.66600000000E+08; -19.713       
   4.66650000000E+08; -19.1367      
   4.66700000000E+08; -18.5679      
   4.66750000000E+08; -18.0879      
   4.66800000000E+08; -18.3886      
   4.66850000000E+08; -19.9244      
   4.66900000000E+08; -20.1363      
   4.66950000000E+08; -20.4635      
   4.67000000000E+08; -20.0381      
   4.67050000000E+08; -19.2638      
   4.67100000000E+08; -19.2367      
   4.67150000000E+08; -20.2143      
   4.67200000000E+08; -20.5646      
   4.67250000000E+08; -22.04        
   4.67300000000E+08; -23.0272      
   4.67350000000E+08; -23.5347      
   4.67400000000E+08; -22.8853      
   4.67450000000E+08; -21.8794      
   4.67500000000E+08; -21.0412      
   4.67550000000E+08; -21.5801      
   4.67600000000E+08; -22.1593      
   4.67650000000E+08; -22.3287      
   4.67700000000E+08; -22.417       
   4.67750000000E+08; -22.3974      
   4.67800000000E+08; -21.8545      
   4.67850000000E+08; -21.5092      
   4.67900000000E+08; -21.3944      
   4.67950000000E+08; -21.3431      
   4.68000000000E+08; -21.3209      
   4.68050000000E+08; -20.8348      
   4.68100000000E+08; -20.6922      
   4.68150000000E+08; -20.2656      
   4.68200000000E+08; -19.4989      
   4.68250000000E+08; -20.5968      
   4.68300000000E+08; -22.0364      
   4.68350000000E+08; -23.0788      
   4.68400000000E+08; -23.9854      
   4.68450000000E+08; -25.0465      
   4.68500000000E+08; -25.5481      
   4.68550000000E+08; -25.1144      
   4.68600000000E+08; -25.312       
   4.68650000000E+08; -25.3835      
   4.68700000000E+08; -25.0287      
   4.68750000000E+08; -24.5588      
   4.68800000000E+08; -24.2611      
   4.68850000000E+08; -23.9952      
   4.68900000000E+08; -23.7499      
   4.68950000000E+08; -22.8602      
   4.69000000000E+08; -22.4092      
   4.69050000000E+08; -21.5804      
   4.69100000000E+08; -20.8937      
   4.69150000000E+08; -19.9064      
   4.69200000000E+08; -19.5069      
   4.69250000000E+08; -19.1574      
   4.69300000000E+08; -19.8271      
   4.69350000000E+08; -21.1204      
   4.69400000000E+08; -23.0205      
   4.69450000000E+08; -24.8367      
   4.69500000000E+08; -25.9894      
   4.69550000000E+08; -26.3856      
   4.69600000000E+08; -27.5117      
   4.69650000000E+08; -28.3332      
   4.69700000000E+08; -29.2098      
   4.69750000000E+08; -27.9933      
   4.69800000000E+08; -25.8547      
   4.69850000000E+08; -24.3208      
   4.69900000000E+08; -23.1463      
   4.69950000000E+08; -22.4121      
   4.70000000000E+08; -21.7838      
   4.70050000000E+08; -21.6027      
   4.70100000000E+08; -21.8029      
   4.70150000000E+08; -21.6458      
   4.70200000000E+08; -22.4817      
   4.70250000000E+08; -23.7575      
   4.70300000000E+08; -24.1236      
   4.70350000000E+08; -23.5122      
   4.70400000000E+08; -24.3945      
   4.70450000000E+08; -24.5736      
   4.70500000000E+08; -26.5226      
   4.70550000000E+08; -29.0873      
   4.70600000000E+08; -30.0831      
   4.70650000000E+08; -30.0826      
   4.70700000000E+08; -28.3865      
   4.70750000000E+08; -27.2078      
   4.70800000000E+08; -26.3707      
   4.70850000000E+08; -25.651       
   4.70900000000E+08; -25.6677      
   4.70950000000E+08; -25.4074      
   4.71000000000E+08; -26.8384      
   4.71050000000E+08; -27.195       
   4.71100000000E+08; -26.0948      
   4.71150000000E+08; -25.088       
   4.71200000000E+08; -24.5604      
   4.71250000000E+08; -24.464       
   4.71300000000E+08; -24.0371      
   4.71350000000E+08; -24.4995      
   4.71400000000E+08; -26.1488      
   4.71450000000E+08; -28.3762      
   4.71500000000E+08; -29.7542      
   4.71550000000E+08; -30.6385      
   4.71600000000E+08; -32.4561      
   4.71650000000E+08; -31.063       
   4.71700000000E+08; -33.6603      
   4.71750000000E+08; -31.451       
   4.71800000000E+08; -30.4405      
   4.71850000000E+08; -30.4556      
   4.71900000000E+08; -29.4223      
   4.71950000000E+08; -30.6543      
   4.72000000000E+08; -30.0868      
   4.72050000000E+08; -29.6564      
   4.72100000000E+08; -28.5888      
   4.72150000000E+08; -27.8589      
   4.72200000000E+08; -27.7009      
   4.72250000000E+08; -28.2283      
   4.72300000000E+08; -27.6177      
   4.72350000000E+08; -26.7906      
   4.72400000000E+08; -25.8549      
   4.72450000000E+08; -26.4027      
   4.72500000000E+08; -26.5275      
   4.72550000000E+08; -28.2751      
   4.72600000000E+08; -29.7567      
   4.72650000000E+08; -30.6265      
   4.72700000000E+08; -31.0842      
   4.72750000000E+08; -31.5003      
   4.72800000000E+08; -31.2085      
   4.72850000000E+08; -31.1758      
   4.72900000000E+08; -31.063       
   4.72950000000E+08; -31.689       
   4.73000000000E+08; -32.867       
   4.73050000000E+08; -32.4636      
   4.73100000000E+08; -31.3835      
   4.73150000000E+08; -31.3083      
   4.73200000000E+08; -30.2426      
   4.73250000000E+08; -29.1254      
   4.73300000000E+08; -28.9975      
   4.73350000000E+08; -28.5881      
   4.73400000000E+08; -28.4983      
   4.73450000000E+08; -28.832       
   4.73500000000E+08; -29.6063      
   4.73550000000E+08; -30.0808      
   4.73600000000E+08; -30.0682      
   4.73650000000E+08; -31.4702      
   4.73700000000E+08; -31.8219      
   4.73750000000E+08; -32.9978      
   4.73800000000E+08; -34.4479      
   4.73850000000E+08; -34.8106      
   4.73900000000E+08; -35.5696      
   4.73950000000E+08; -38.3078      
   4.74000000000E+08; -37.6559      
   4.74050000000E+08; -40.4925      
   4.74100000000E+08; -39.3558      
   4.74150000000E+08; -43.2146      
   4.74200000000E+08; -48.735       
   4.74250000000E+08; -59.7763      
   4.74300000000E+08; -46.3139      
   4.74350000000E+08; -40.9741      
   4.74400000000E+08; -39.4488      
   4.74450000000E+08; -38.6014      
   4.74500000000E+08; -39.4924      
   4.74550000000E+08; -37.5396      
   4.74600000000E+08; -35.2783      
   4.74650000000E+08; -34.5925      
   4.74700000000E+08; -34.2178      
   4.74750000000E+08; -34.8963      
   4.74800000000E+08; -36.6563      
   4.74850000000E+08; -37.8105      
   4.74900000000E+08; -39.2275      
   4.74950000000E+08; -37.6453      
   4.75000000000E+08; -42.646       
   4.75050000000E+08; -43.2332      
   4.75100000000E+08; -37.6889      
   4.75150000000E+08; -38.0913      
   4.75200000000E+08; -35.0679      
   4.75250000000E+08; -35.3477      
   4.75300000000E+08; -33.3373      
   4.75350000000E+08; -32.7229      
   4.75400000000E+08; -35.8794      
   4.75450000000E+08; -37.298       
   4.75500000000E+08; -42.1891      
   4.75550000000E+08; -53.1411      
   4.75600000000E+08; -53.8775      
   4.75650000000E+08; -45.0963      
   4.75700000000E+08; -43.0451      
   4.75750000000E+08; -42.1638      
   4.75800000000E+08; -41.5663      
   4.75850000000E+08; -41.5392      
   4.75900000000E+08; -40.8964      
   4.75950000000E+08; -41.2223      
   4.76000000000E+08; -42.5823      
   4.76050000000E+08; -45.5113      
   4.76100000000E+08; -44.8508      
   4.76150000000E+08; -41.5133      
   4.76200000000E+08; -42.0784      
   4.76250000000E+08; -43.7104      
   4.76300000000E+08; -42.4363      
   4.76350000000E+08; -42.1802      
   4.76400000000E+08; -38.446       
   4.76450000000E+08; -36.8386      
   4.76500000000E+08; -35.6204      
   4.76550000000E+08; -35.4467      
   4.76600000000E+08; -34.8599      
   4.76650000000E+08; -34.7772      
   4.76700000000E+08; -34.3351      
   4.76750000000E+08; -37.2927      
   4.76800000000E+08; -38.8306      
   4.76850000000E+08; -37.4378      
   4.76900000000E+08; -39.2204      
   4.76950000000E+08; -38.1973      
   4.77000000000E+08; -42.4826      
   4.77050000000E+08; -44.115       
   4.77100000000E+08; -41.194       
   4.77150000000E+08; -41.9764      
   4.77200000000E+08; -38.5322      
   4.77250000000E+08; -37.6523      
   4.77300000000E+08; -37.4216      
   4.77350000000E+08; -36.8981      
   4.77400000000E+08; -38.1081      
   4.77450000000E+08; -38.1825      
   4.77500000000E+08; -39.6932      
   4.77550000000E+08; -40.1284      
   4.77600000000E+08; -39.304       
   4.77650000000E+08; -39.1677      
   4.77700000000E+08; -37.6344      
   4.77750000000E+08; -37.5719      
   4.77800000000E+08; -35.4287      
   4.77850000000E+08; -35.8889      
   4.77900000000E+08; -40.0938      
   4.77950000000E+08; -37.2587      
   4.78000000000E+08; -35.1513      
   4.78050000000E+08; -35.6064      
   4.78100000000E+08; -35.6841      
   4.78150000000E+08; -35.23        
   4.78200000000E+08; -35.4222      
   4.78250000000E+08; -34.3333      
   4.78300000000E+08; -32.8434      
   4.78350000000E+08; -31.7844      
   4.78400000000E+08; -30.0291      
   4.78450000000E+08; -30.9568      
   4.78500000000E+08; -29.6728      
   4.78550000000E+08; -30.4703      
   4.78600000000E+08; -32.9651      
   4.78650000000E+08; -35.1335      
   4.78700000000E+08; -36.916       
   4.78750000000E+08; -39.5822      
   4.78800000000E+08; -40.5033      
   4.78850000000E+08; -46.7966      
   4.78900000000E+08; -49.4311      
   4.78950000000E+08; -49.3113      
   4.79000000000E+08; -69.5566      
   4.79050000000E+08; -46.9183      
   4.79100000000E+08; -42.2689      
   4.79150000000E+08; -46.5452      
   4.79200000000E+08; -50.8894      
   4.79250000000E+08; -47.3767      
   4.79300000000E+08; -41.3227      
   4.79350000000E+08; -38.212       
   4.79400000000E+08; -37.7816      
   4.79450000000E+08; -39.5124      
   4.79500000000E+08; -37.1808      
   4.79550000000E+08; -37.3851      
   4.79600000000E+08; -37.5465      
   4.79650000000E+08; -40.8104      
   4.79700000000E+08; -40.1329      
   4.79750000000E+08; -37.51        
   4.79800000000E+08; -36.4962      
   4.79850000000E+08; -34.6386      
   4.79900000000E+08; -34.7629      
   4.79950000000E+08; -36.0917      
   4.80000000000E+08; -41.1899      
