
  ZVRE, 2.05

  stimulus-start        ; stimulus-stop       ; stimulus-unit       ; nof-points; parameter-type; impedance-ohm
  4.00000000000E+08     ; 4.80000000000E+08   ; Hz                  ; 1601      ; S21           ; 50        

  conversion            ; time-domain         ; data-format         ; param-unit; smoothing     ; trace-math
  S                     ; none                ; MAGNITUDE           ; dB        ; none          ; none

  sweep-mode-type       ; notlinear-meas-mode 
  FUNDAMENTAL           ; none                


  freq              ;  S21          
   4.00000000000E+08; -38.4098      
   4.00050000000E+08; -38.1966      
   4.00100000000E+08; -43.7178      
   4.00150000000E+08; -43.847       
   4.00200000000E+08; -40.1964      
   4.00250000000E+08; -41.1095      
   4.00300000000E+08; -42.3295      
   4.00350000000E+08; -44.5444      
   4.00400000000E+08; -44.7951      
   4.00450000000E+08; -43.8754      
   4.00500000000E+08; -41.293       
   4.00550000000E+08; -43.1933      
   4.00600000000E+08; -47.6923      
   4.00650000000E+08; -51.2772      
   4.00700000000E+08; -46.2536      
   4.00750000000E+08; -38.7327      
   4.00800000000E+08; -36.1352      
   4.00850000000E+08; -35.5954      
   4.00900000000E+08; -35.0522      
   4.00950000000E+08; -37.2121      
   4.01000000000E+08; -35.5552      
   4.01050000000E+08; -34.977       
   4.01100000000E+08; -37.2806      
   4.01150000000E+08; -36.6152      
   4.01200000000E+08; -35.6358      
   4.01250000000E+08; -36.26        
   4.01300000000E+08; -39.5089      
   4.01350000000E+08; -39.7567      
   4.01400000000E+08; -39.6171      
   4.01450000000E+08; -36.4781      
   4.01500000000E+08; -35.6195      
   4.01550000000E+08; -38.0374      
   4.01600000000E+08; -36.3541      
   4.01650000000E+08; -35.2819      
   4.01700000000E+08; -34.4267      
   4.01750000000E+08; -35.084       
   4.01800000000E+08; -37.8283      
   4.01850000000E+08; -38.8198      
   4.01900000000E+08; -37.1774      
   4.01950000000E+08; -36.2243      
   4.02000000000E+08; -36.7441      
   4.02050000000E+08; -35.3137      
   4.02100000000E+08; -35.6736      
   4.02150000000E+08; -36.4877      
   4.02200000000E+08; -35.8264      
   4.02250000000E+08; -35.0395      
   4.02300000000E+08; -35.3389      
   4.02350000000E+08; -34.1714      
   4.02400000000E+08; -33.453       
   4.02450000000E+08; -34.3878      
   4.02500000000E+08; -34.276       
   4.02550000000E+08; -35.2096      
   4.02600000000E+08; -37.1919      
   4.02650000000E+08; -37.6575      
   4.02700000000E+08; -36.9727      
   4.02750000000E+08; -34.8725      
   4.02800000000E+08; -34.2964      
   4.02850000000E+08; -34.623       
   4.02900000000E+08; -34.996       
   4.02950000000E+08; -35.5964      
   4.03000000000E+08; -36.1621      
   4.03050000000E+08; -35.3104      
   4.03100000000E+08; -34.5978      
   4.03150000000E+08; -35.1624      
   4.03200000000E+08; -35.2962      
   4.03250000000E+08; -36.4602      
   4.03300000000E+08; -33.6929      
   4.03350000000E+08; -33.8695      
   4.03400000000E+08; -33.9739      
   4.03450000000E+08; -33.9755      
   4.03500000000E+08; -34.405       
   4.03550000000E+08; -36.0663      
   4.03600000000E+08; -34.806       
   4.03650000000E+08; -34.7553      
   4.03700000000E+08; -35.7894      
   4.03750000000E+08; -36.6728      
   4.03800000000E+08; -36.9279      
   4.03850000000E+08; -35.6844      
   4.03900000000E+08; -37.423       
   4.03950000000E+08; -37.9564      
   4.04000000000E+08; -39.3224      
   4.04050000000E+08; -38.1106      
   4.04100000000E+08; -38.6347      
   4.04150000000E+08; -36.1863      
   4.04200000000E+08; -36.0608      
   4.04250000000E+08; -36.7293      
   4.04300000000E+08; -37.5686      
   4.04350000000E+08; -36.1347      
   4.04400000000E+08; -38.879       
   4.04450000000E+08; -39.1671      
   4.04500000000E+08; -40.1202      
   4.04550000000E+08; -42.6596      
   4.04600000000E+08; -37.9382      
   4.04650000000E+08; -35.3123      
   4.04700000000E+08; -36.1469      
   4.04750000000E+08; -36.1158      
   4.04800000000E+08; -37.3329      
   4.04850000000E+08; -39.4055      
   4.04900000000E+08; -39.062       
   4.04950000000E+08; -38.6185      
   4.05000000000E+08; -39.865       
   4.05050000000E+08; -38.743       
   4.05100000000E+08; -37.0321      
   4.05150000000E+08; -37.4315      
   4.05200000000E+08; -39.562       
   4.05250000000E+08; -40.0963      
   4.05300000000E+08; -38.9419      
   4.05350000000E+08; -40.1744      
   4.05400000000E+08; -40.2417      
   4.05450000000E+08; -37.8452      
   4.05500000000E+08; -37.7001      
   4.05550000000E+08; -38.4719      
   4.05600000000E+08; -40.0053      
   4.05650000000E+08; -44.229       
   4.05700000000E+08; -39.2167      
   4.05750000000E+08; -39.0011      
   4.05800000000E+08; -39.2563      
   4.05850000000E+08; -38.8247      
   4.05900000000E+08; -39.3122      
   4.05950000000E+08; -39.344       
   4.06000000000E+08; -40.5606      
   4.06050000000E+08; -39.4654      
   4.06100000000E+08; -40.099       
   4.06150000000E+08; -40.6345      
   4.06200000000E+08; -39.2075      
   4.06250000000E+08; -39.3425      
   4.06300000000E+08; -40.3126      
   4.06350000000E+08; -42.4308      
   4.06400000000E+08; -41.2592      
   4.06450000000E+08; -40.3366      
   4.06500000000E+08; -40.3243      
   4.06550000000E+08; -41.1895      
   4.06600000000E+08; -41.5944      
   4.06650000000E+08; -40.0165      
   4.06700000000E+08; -39.8276      
   4.06750000000E+08; -39.8393      
   4.06800000000E+08; -38.8796      
   4.06850000000E+08; -38.9646      
   4.06900000000E+08; -39.8522      
   4.06950000000E+08; -39.1497      
   4.07000000000E+08; -38.3595      
   4.07050000000E+08; -38.21        
   4.07100000000E+08; -37.8225      
   4.07150000000E+08; -37.9616      
   4.07200000000E+08; -38.0397      
   4.07250000000E+08; -37.7566      
   4.07300000000E+08; -38.6763      
   4.07350000000E+08; -38.4992      
   4.07400000000E+08; -37.7534      
   4.07450000000E+08; -37.7379      
   4.07500000000E+08; -36.8753      
   4.07550000000E+08; -36.7201      
   4.07600000000E+08; -37.5306      
   4.07650000000E+08; -37.6126      
   4.07700000000E+08; -36.7893      
   4.07750000000E+08; -36.7507      
   4.07800000000E+08; -36.4194      
   4.07850000000E+08; -36.696       
   4.07900000000E+08; -37.742       
   4.07950000000E+08; -37.2866      
   4.08000000000E+08; -37.6987      
   4.08050000000E+08; -37.2834      
   4.08100000000E+08; -38.7881      
   4.08150000000E+08; -38.5798      
   4.08200000000E+08; -38.6702      
   4.08250000000E+08; -39.1         
   4.08300000000E+08; -39.1216      
   4.08350000000E+08; -37.7595      
   4.08400000000E+08; -38.897       
   4.08450000000E+08; -39.4849      
   4.08500000000E+08; -38.8358      
   4.08550000000E+08; -38.3146      
   4.08600000000E+08; -39.02        
   4.08650000000E+08; -40.0998      
   4.08700000000E+08; -39.2887      
   4.08750000000E+08; -39.8555      
   4.08800000000E+08; -39.6092      
   4.08850000000E+08; -40.4751      
   4.08900000000E+08; -41.7004      
   4.08950000000E+08; -39.4499      
   4.09000000000E+08; -39.5196      
   4.09050000000E+08; -38.5827      
   4.09100000000E+08; -38.446       
   4.09150000000E+08; -38.4479      
   4.09200000000E+08; -39.236       
   4.09250000000E+08; -40.0608      
   4.09300000000E+08; -39.0793      
   4.09350000000E+08; -39.0726      
   4.09400000000E+08; -39.644       
   4.09450000000E+08; -41.1049      
   4.09500000000E+08; -40.2217      
   4.09550000000E+08; -39.936       
   4.09600000000E+08; -40.2075      
   4.09650000000E+08; -40.0111      
   4.09700000000E+08; -38.8708      
   4.09750000000E+08; -39.0983      
   4.09800000000E+08; -37.2525      
   4.09850000000E+08; -37.8323      
   4.09900000000E+08; -37.289       
   4.09950000000E+08; -38.3409      
   4.10000000000E+08; -37.7151      
   4.10050000000E+08; -37.8282      
   4.10100000000E+08; -37.6031      
   4.10150000000E+08; -36.9357      
   4.10200000000E+08; -36.6286      
   4.10250000000E+08; -35.733       
   4.10300000000E+08; -34.4158      
   4.10350000000E+08; -35.1736      
   4.10400000000E+08; -35.3361      
   4.10450000000E+08; -35.7763      
   4.10500000000E+08; -35.2088      
   4.10550000000E+08; -34.8503      
   4.10600000000E+08; -35.2461      
   4.10650000000E+08; -34.6874      
   4.10700000000E+08; -34.9568      
   4.10750000000E+08; -34.4339      
   4.10800000000E+08; -34.2505      
   4.10850000000E+08; -34.263       
   4.10900000000E+08; -34.8757      
   4.10950000000E+08; -34.7783      
   4.11000000000E+08; -34.2455      
   4.11050000000E+08; -34.254       
   4.11100000000E+08; -34.2244      
   4.11150000000E+08; -34.5079      
   4.11200000000E+08; -34.9615      
   4.11250000000E+08; -34.9144      
   4.11300000000E+08; -33.9923      
   4.11350000000E+08; -34.4523      
   4.11400000000E+08; -33.9872      
   4.11450000000E+08; -34.0811      
   4.11500000000E+08; -33.6265      
   4.11550000000E+08; -33.8545      
   4.11600000000E+08; -33.7864      
   4.11650000000E+08; -33.7231      
   4.11700000000E+08; -34.2472      
   4.11750000000E+08; -34.4383      
   4.11800000000E+08; -34.745       
   4.11850000000E+08; -34.5105      
   4.11900000000E+08; -34.453       
   4.11950000000E+08; -35.2349      
   4.12000000000E+08; -35.2208      
   4.12050000000E+08; -35.1314      
   4.12100000000E+08; -34.8307      
   4.12150000000E+08; -35.4414      
   4.12200000000E+08; -37.1546      
   4.12250000000E+08; -36.2637      
   4.12300000000E+08; -35.5803      
   4.12350000000E+08; -35.8002      
   4.12400000000E+08; -35.4025      
   4.12450000000E+08; -35.035       
   4.12500000000E+08; -34.7595      
   4.12550000000E+08; -35.3207      
   4.12600000000E+08; -35.6426      
   4.12650000000E+08; -35.2642      
   4.12700000000E+08; -34.8118      
   4.12750000000E+08; -33.9176      
   4.12800000000E+08; -34.8603      
   4.12850000000E+08; -34.7521      
   4.12900000000E+08; -34.8402      
   4.12950000000E+08; -34.912       
   4.13000000000E+08; -34.6209      
   4.13050000000E+08; -33.6525      
   4.13100000000E+08; -33.6452      
   4.13150000000E+08; -32.9822      
   4.13200000000E+08; -32.0872      
   4.13250000000E+08; -32.0073      
   4.13300000000E+08; -31.5028      
   4.13350000000E+08; -30.6288      
   4.13400000000E+08; -30.5538      
   4.13450000000E+08; -29.8951      
   4.13500000000E+08; -29.4048      
   4.13550000000E+08; -28.6225      
   4.13600000000E+08; -27.9362      
   4.13650000000E+08; -27.2775      
   4.13700000000E+08; -26.4166      
   4.13750000000E+08; -25.7065      
   4.13800000000E+08; -24.7486      
   4.13850000000E+08; -23.972       
   4.13900000000E+08; -23.3289      
   4.13950000000E+08; -22.9735      
   4.14000000000E+08; -23.1435      
   4.14050000000E+08; -22.2108      
   4.14100000000E+08; -20.5176      
   4.14150000000E+08; -18.9743      
   4.14200000000E+08; -17.5063      
   4.14250000000E+08; -16.4403      
   4.14300000000E+08; -15.2056      
   4.14350000000E+08; -13.2352      
   4.14400000000E+08; -13.3586      
   4.14450000000E+08; -14.9919      
   4.14500000000E+08; -13.9387      
   4.14550000000E+08; -12.9991      
   4.14600000000E+08; -13.7794      
   4.14650000000E+08; -15.4843      
   4.14700000000E+08; -17.1533      
   4.14750000000E+08; -17.6656      
   4.14800000000E+08; -18.5564      
   4.14850000000E+08; -20.3913      
   4.14900000000E+08; -22.8663      
   4.14950000000E+08; -26.0591      
   4.15000000000E+08; -27.2714      
   4.15050000000E+08; -27.1214      
   4.15100000000E+08; -27.9135      
   4.15150000000E+08; -27.3046      
   4.15200000000E+08; -27.6014      
   4.15250000000E+08; -28.6709      
   4.15300000000E+08; -30.5477      
   4.15350000000E+08; -31.9056      
   4.15400000000E+08; -33.9977      
   4.15450000000E+08; -35.6226      
   4.15500000000E+08; -37.43        
   4.15550000000E+08; -39.6697      
   4.15600000000E+08; -43.2312      
   4.15650000000E+08; -42.6652      
   4.15700000000E+08; -41.3104      
   4.15750000000E+08; -39.0864      
   4.15800000000E+08; -37.8612      
   4.15850000000E+08; -36.0555      
   4.15900000000E+08; -35.0191      
   4.15950000000E+08; -34.3342      
   4.16000000000E+08; -32.2787      
   4.16050000000E+08; -30.0927      
   4.16100000000E+08; -28.6481      
   4.16150000000E+08; -28.4084      
   4.16200000000E+08; -28.7999      
   4.16250000000E+08; -28.9883      
   4.16300000000E+08; -28.0505      
   4.16350000000E+08; -26.5695      
   4.16400000000E+08; -25.209       
   4.16450000000E+08; -23.7357      
   4.16500000000E+08; -21.6714      
   4.16550000000E+08; -19.3569      
   4.16600000000E+08; -17.7259      
   4.16650000000E+08; -16.525       
   4.16700000000E+08; -15.2107      
   4.16750000000E+08; -13.5999      
   4.16800000000E+08; -11.7435      
   4.16850000000E+08; -9.97088      
   4.16900000000E+08; -8.15703      
   4.16950000000E+08; -6.29958      
   4.17000000000E+08; -4.45297      
   4.17050000000E+08; -2.59415      
   4.17100000000E+08; -1.35485      
   4.17150000000E+08; -1.29347      
   4.17200000000E+08; -1.83717      
   4.17250000000E+08; -3.08221      
   4.17300000000E+08; -4.51874      
   4.17350000000E+08; -4.75111      
   4.17400000000E+08; -3.48293      
   4.17450000000E+08; -2.24275      
   4.17500000000E+08; -2.29811      
   4.17550000000E+08; -3.43886      
   4.17600000000E+08; -5.23903      
   4.17650000000E+08; -7.07839      
   4.17700000000E+08; -8.84472      
   4.17750000000E+08; -10.6589      
   4.17800000000E+08; -13.122       
   4.17850000000E+08; -15.0335      
   4.17900000000E+08; -14.6828      
   4.17950000000E+08; -15.6115      
   4.18000000000E+08; -16.6194      
   4.18050000000E+08; -17.7581      
   4.18100000000E+08; -19.0108      
   4.18150000000E+08; -20.7143      
   4.18200000000E+08; -22.7985      
   4.18250000000E+08; -24.7871      
   4.18300000000E+08; -27.3341      
   4.18350000000E+08; -28.6557      
   4.18400000000E+08; -27.8046      
   4.18450000000E+08; -28.7228      
   4.18500000000E+08; -31.2631      
   4.18550000000E+08; -35.4074      
   4.18600000000E+08; -38.8384      
   4.18650000000E+08; -36.975       
   4.18700000000E+08; -33.9331      
   4.18750000000E+08; -30.6386      
   4.18800000000E+08; -27.3638      
   4.18850000000E+08; -23.3847      
   4.18900000000E+08; -21.282       
   4.18950000000E+08; -19.4127      
   4.19000000000E+08; -18.1455      
   4.19050000000E+08; -17.2048      
   4.19100000000E+08; -14.9918      
   4.19150000000E+08; -12.1917      
   4.19200000000E+08; -9.07731      
   4.19250000000E+08; -5.87561      
   4.19300000000E+08; -2.78875      
   4.19350000000E+08; -0.142075     
   4.19400000000E+08;  1.30645      
   4.19450000000E+08;  1.53798      
   4.19500000000E+08;  1.81309      
   4.19550000000E+08;  1.84313      
   4.19600000000E+08;  1.19125      
   4.19650000000E+08;  1.64044      
   4.19700000000E+08;  1.30554      
   4.19750000000E+08;  0.144728     
   4.19800000000E+08; -1.57416      
   4.19850000000E+08; -4.33424      
   4.19900000000E+08; -7.54081      
   4.19950000000E+08; -10.7858      
   4.20000000000E+08; -13.9497      
   4.20050000000E+08; -16.4845      
   4.20100000000E+08; -20.0327      
   4.20150000000E+08; -24.0152      
   4.20200000000E+08; -29.9513      
   4.20250000000E+08; -37.4466      
   4.20300000000E+08; -32.1502      
   4.20350000000E+08; -27.3181      
   4.20400000000E+08; -23.0972      
   4.20450000000E+08; -19.6559      
   4.20500000000E+08; -16.8585      
   4.20550000000E+08; -14.4982      
   4.20600000000E+08; -12.1885      
   4.20650000000E+08; -9.97774      
   4.20700000000E+08; -7.95403      
   4.20750000000E+08; -5.92678      
   4.20800000000E+08; -4.01984      
   4.20850000000E+08; -2.13921      
   4.20900000000E+08; -0.404494     
   4.20950000000E+08;  1.24806      
   4.21000000000E+08;  2.79636      
   4.21050000000E+08;  4.24874      
   4.21100000000E+08;  5.62119      
   4.21150000000E+08;  6.93756      
   4.21200000000E+08;  8.1687       
   4.21250000000E+08;  9.33258      
   4.21300000000E+08;  10.391       
   4.21350000000E+08;  11.3741      
   4.21400000000E+08;  12.2935      
   4.21450000000E+08;  13.1048      
   4.21500000000E+08;  13.8612      
   4.21550000000E+08;  14.5489      
   4.21600000000E+08;  15.1725      
   4.21650000000E+08;  15.7084      
   4.21700000000E+08;  16.1612      
   4.21750000000E+08;  16.5289      
   4.21800000000E+08;  16.8522      
   4.21850000000E+08;  17.1464      
   4.21900000000E+08;  17.427       
   4.21950000000E+08;  17.6835      
   4.22000000000E+08;  17.9068      
   4.22050000000E+08;  18.1098      
   4.22100000000E+08;  18.2809      
   4.22150000000E+08;  18.4208      
   4.22200000000E+08;  18.5364      
   4.22250000000E+08;  18.6321      
   4.22300000000E+08;  18.7246      
   4.22350000000E+08;  18.8326      
   4.22400000000E+08;  18.9187      
   4.22450000000E+08;  18.9852      
   4.22500000000E+08;  19.0378      
   4.22550000000E+08;  19.083       
   4.22600000000E+08;  19.1447      
   4.22650000000E+08;  19.1896      
   4.22700000000E+08;  19.2346      
   4.22750000000E+08;  19.2753      
   4.22800000000E+08;  19.3022      
   4.22850000000E+08;  19.3214      
   4.22900000000E+08;  19.3061      
   4.22950000000E+08;  19.3004      
   4.23000000000E+08;  19.3102      
   4.23050000000E+08;  19.3329      
   4.23100000000E+08;  19.3786      
   4.23150000000E+08;  19.4411      
   4.23200000000E+08;  19.4934      
   4.23250000000E+08;  19.5349      
   4.23300000000E+08;  19.5691      
   4.23350000000E+08;  19.5819      
   4.23400000000E+08;  19.5878      
   4.23450000000E+08;  19.5975      
   4.23500000000E+08;  19.6039      
   4.23550000000E+08;  19.609       
   4.23600000000E+08;  19.6194      
   4.23650000000E+08;  19.6308      
   4.23700000000E+08;  19.6495      
   4.23750000000E+08;  19.6709      
   4.23800000000E+08;  19.6935      
   4.23850000000E+08;  19.7176      
   4.23900000000E+08;  19.7434      
   4.23950000000E+08;  19.7662      
   4.24000000000E+08;  19.7827      
   4.24050000000E+08;  19.797       
   4.24100000000E+08;  19.8153      
   4.24150000000E+08;  19.8296      
   4.24200000000E+08;  19.8497      
   4.24250000000E+08;  19.878       
   4.24300000000E+08;  19.8972      
   4.24350000000E+08;  19.9237      
   4.24400000000E+08;  19.9578      
   4.24450000000E+08;  19.9854      
   4.24500000000E+08;  19.9933      
   4.24550000000E+08;  19.9986      
   4.24600000000E+08;  19.9913      
   4.24650000000E+08;  19.9818      
   4.24700000000E+08;  19.9683      
   4.24750000000E+08;  19.9797      
   4.24800000000E+08;  20.003       
   4.24850000000E+08;  20.0412      
   4.24900000000E+08;  20.0667      
   4.24950000000E+08;  20.0897      
   4.25000000000E+08;  20.1071      
   4.25050000000E+08;  20.117       
   4.25100000000E+08;  20.1243      
   4.25150000000E+08;  20.1155      
   4.25200000000E+08;  20.1032      
   4.25250000000E+08;  20.1008      
   4.25300000000E+08;  20.0854      
   4.25350000000E+08;  20.0838      
   4.25400000000E+08;  20.0805      
   4.25450000000E+08;  20.0711      
   4.25500000000E+08;  20.0633      
   4.25550000000E+08;  20.0494      
   4.25600000000E+08;  20.0446      
   4.25650000000E+08;  20.0447      
   4.25700000000E+08;  20.0499      
   4.25750000000E+08;  20.0606      
   4.25800000000E+08;  20.0617      
   4.25850000000E+08;  20.0645      
   4.25900000000E+08;  20.0408      
   4.25950000000E+08;  20.0308      
   4.26000000000E+08;  20.0217      
   4.26050000000E+08;  20.0071      
   4.26100000000E+08;  19.9954      
   4.26150000000E+08;  19.9654      
   4.26200000000E+08;  19.9416      
   4.26250000000E+08;  19.9015      
   4.26300000000E+08;  19.8646      
   4.26350000000E+08;  19.8395      
   4.26400000000E+08;  19.8346      
   4.26450000000E+08;  19.8335      
   4.26500000000E+08;  19.8286      
   4.26550000000E+08;  19.8133      
   4.26600000000E+08;  19.7991      
   4.26650000000E+08;  19.7765      
   4.26700000000E+08;  19.7583      
   4.26750000000E+08;  19.7351      
   4.26800000000E+08;  19.7207      
   4.26850000000E+08;  19.7268      
   4.26900000000E+08;  19.7354      
   4.26950000000E+08;  19.7526      
   4.27000000000E+08;  19.7592      
   4.27050000000E+08;  19.7685      
   4.27100000000E+08;  19.7676      
   4.27150000000E+08;  19.7575      
   4.27200000000E+08;  19.7323      
   4.27250000000E+08;  19.7015      
   4.27300000000E+08;  19.6602      
   4.27350000000E+08;  19.631       
   4.27400000000E+08;  19.6121      
   4.27450000000E+08;  19.6085      
   4.27500000000E+08;  19.6103      
   4.27550000000E+08;  19.6063      
   4.27600000000E+08;  19.6015      
   4.27650000000E+08;  19.5943      
   4.27700000000E+08;  19.6         
   4.27750000000E+08;  19.6228      
   4.27800000000E+08;  19.6409      
   4.27850000000E+08;  19.6642      
   4.27900000000E+08;  19.664       
   4.27950000000E+08;  19.6651      
   4.28000000000E+08;  19.6783      
   4.28050000000E+08;  19.7021      
   4.28100000000E+08;  19.7394      
   4.28150000000E+08;  19.7613      
   4.28200000000E+08;  19.7856      
   4.28250000000E+08;  19.8126      
   4.28300000000E+08;  19.8281      
   4.28350000000E+08;  19.8428      
   4.28400000000E+08;  19.8455      
   4.28450000000E+08;  19.8434      
   4.28500000000E+08;  19.8399      
   4.28550000000E+08;  19.8345      
   4.28600000000E+08;  19.8338      
   4.28650000000E+08;  19.8293      
   4.28700000000E+08;  19.8254      
   4.28750000000E+08;  19.8272      
   4.28800000000E+08;  19.8306      
   4.28850000000E+08;  19.85        
   4.28900000000E+08;  19.845       
   4.28950000000E+08;  19.838       
   4.29000000000E+08;  19.8523      
   4.29050000000E+08;  19.8755      
   4.29100000000E+08;  19.8898      
   4.29150000000E+08;  19.901       
   4.29200000000E+08;  19.9174      
   4.29250000000E+08;  19.9412      
   4.29300000000E+08;  19.9785      
   4.29350000000E+08;  20.0176      
   4.29400000000E+08;  20.0588      
   4.29450000000E+08;  20.0987      
   4.29500000000E+08;  20.1204      
   4.29550000000E+08;  20.1446      
   4.29600000000E+08;  20.1557      
   4.29650000000E+08;  20.1667      
   4.29700000000E+08;  20.1845      
   4.29750000000E+08;  20.2142      
   4.29800000000E+08;  20.2414      
   4.29850000000E+08;  20.2555      
   4.29900000000E+08;  20.271       
   4.29950000000E+08;  20.2897      
   4.30000000000E+08;  20.3042      
   4.30050000000E+08;  20.3155      
   4.30100000000E+08;  20.3184      
   4.30150000000E+08;  20.3321      
   4.30200000000E+08;  20.3487      
   4.30250000000E+08;  20.3799      
   4.30300000000E+08;  20.4042      
   4.30350000000E+08;  20.4178      
   4.30400000000E+08;  20.427       
   4.30450000000E+08;  20.4421      
   4.30500000000E+08;  20.4662      
   4.30550000000E+08;  20.4788      
   4.30600000000E+08;  20.4943      
   4.30650000000E+08;  20.5102      
   4.30700000000E+08;  20.5138      
   4.30750000000E+08;  20.5311      
   4.30800000000E+08;  20.5421      
   4.30850000000E+08;  20.5667      
   4.30900000000E+08;  20.5948      
   4.30950000000E+08;  20.6048      
   4.31000000000E+08;  20.6045      
   4.31050000000E+08;  20.5932      
   4.31100000000E+08;  20.5812      
   4.31150000000E+08;  20.5789      
   4.31200000000E+08;  20.5763      
   4.31250000000E+08;  20.5741      
   4.31300000000E+08;  20.5641      
   4.31350000000E+08;  20.5443      
   4.31400000000E+08;  20.5363      
   4.31450000000E+08;  20.5364      
   4.31500000000E+08;  20.545       
   4.31550000000E+08;  20.5444      
   4.31600000000E+08;  20.5319      
   4.31650000000E+08;  20.5175      
   4.31700000000E+08;  20.5024      
   4.31750000000E+08;  20.487       
   4.31800000000E+08;  20.4689      
   4.31850000000E+08;  20.4515      
   4.31900000000E+08;  20.4405      
   4.31950000000E+08;  20.4117      
   4.32000000000E+08;  20.3667      
   4.32050000000E+08;  20.3072      
   4.32100000000E+08;  20.2379      
   4.32150000000E+08;  20.1836      
   4.32200000000E+08;  20.1368      
   4.32250000000E+08;  20.111       
   4.32300000000E+08;  20.0684      
   4.32350000000E+08;  20.0171      
   4.32400000000E+08;  19.9977      
   4.32450000000E+08;  19.9879      
   4.32500000000E+08;  20.0037      
   4.32550000000E+08;  20.0221      
   4.32600000000E+08;  20.023       
   4.32650000000E+08;  20.0175      
   4.32700000000E+08;  20.0077      
   4.32750000000E+08;  20.0033      
   4.32800000000E+08;  20.0021      
   4.32850000000E+08;  19.9833      
   4.32900000000E+08;  19.9743      
   4.32950000000E+08;  19.9553      
   4.33000000000E+08;  19.928       
   4.33050000000E+08;  19.8993      
   4.33100000000E+08;  19.8575      
   4.33150000000E+08;  19.8207      
   4.33200000000E+08;  19.7889      
   4.33250000000E+08;  19.7712      
   4.33300000000E+08;  19.7554      
   4.33350000000E+08;  19.7248      
   4.33400000000E+08;  19.6857      
   4.33450000000E+08;  19.6308      
   4.33500000000E+08;  19.5876      
   4.33550000000E+08;  19.5484      
   4.33600000000E+08;  19.5094      
   4.33650000000E+08;  19.4509      
   4.33700000000E+08;  19.3796      
   4.33750000000E+08;  19.3218      
   4.33800000000E+08;  19.2668      
   4.33850000000E+08;  19.2185      
   4.33900000000E+08;  19.1734      
   4.33950000000E+08;  19.1296      
   4.34000000000E+08;  19.1003      
   4.34050000000E+08;  19.0836      
   4.34100000000E+08;  19.0749      
   4.34150000000E+08;  19.0627      
   4.34200000000E+08;  19.0498      
   4.34250000000E+08;  19.0333      
   4.34300000000E+08;  19.0317      
   4.34350000000E+08;  19.024       
   4.34400000000E+08;  19.0065      
   4.34450000000E+08;  19.0091      
   4.34500000000E+08;  19.0002      
   4.34550000000E+08;  19.0022      
   4.34600000000E+08;  19.0046      
   4.34650000000E+08;  18.9989      
   4.34700000000E+08;  18.988       
   4.34750000000E+08;  18.9786      
   4.34800000000E+08;  18.9801      
   4.34850000000E+08;  18.9665      
   4.34900000000E+08;  18.9381      
   4.34950000000E+08;  18.9127      
   4.35000000000E+08;  18.8716      
   4.35050000000E+08;  18.8384      
   4.35100000000E+08;  18.7969      
   4.35150000000E+08;  18.7723      
   4.35200000000E+08;  18.7868      
   4.35250000000E+08;  18.8012      
   4.35300000000E+08;  18.8201      
   4.35350000000E+08;  18.8278      
   4.35400000000E+08;  18.8381      
   4.35450000000E+08;  18.8423      
   4.35500000000E+08;  18.8205      
   4.35550000000E+08;  18.7826      
   4.35600000000E+08;  18.7385      
   4.35650000000E+08;  18.6813      
   4.35700000000E+08;  18.683       
   4.35750000000E+08;  18.7113      
   4.35800000000E+08;  18.7503      
   4.35850000000E+08;  18.7836      
   4.35900000000E+08;  18.8108      
   4.35950000000E+08;  18.8332      
   4.36000000000E+08;  18.8524      
   4.36050000000E+08;  18.8627      
   4.36100000000E+08;  18.8871      
   4.36150000000E+08;  18.8958      
   4.36200000000E+08;  18.9105      
   4.36250000000E+08;  18.9274      
   4.36300000000E+08;  18.9422      
   4.36350000000E+08;  18.9548      
   4.36400000000E+08;  18.9612      
   4.36450000000E+08;  18.9368      
   4.36500000000E+08;  18.8904      
   4.36550000000E+08;  18.8748      
   4.36600000000E+08;  18.9022      
   4.36650000000E+08;  18.9233      
   4.36700000000E+08;  18.9519      
   4.36750000000E+08;  18.9906      
   4.36800000000E+08;  19.0276      
   4.36850000000E+08;  19.0352      
   4.36900000000E+08;  19.0264      
   4.36950000000E+08;  19.0036      
   4.37000000000E+08;  18.998       
   4.37050000000E+08;  18.9998      
   4.37100000000E+08;  18.9926      
   4.37150000000E+08;  18.9953      
   4.37200000000E+08;  19.0238      
   4.37250000000E+08;  19.0435      
   4.37300000000E+08;  19.0866      
   4.37350000000E+08;  19.1369      
   4.37400000000E+08;  19.1957      
   4.37450000000E+08;  19.2418      
   4.37500000000E+08;  19.275       
   4.37550000000E+08;  19.2872      
   4.37600000000E+08;  19.2754      
   4.37650000000E+08;  19.247       
   4.37700000000E+08;  19.2502      
   4.37750000000E+08;  19.2882      
   4.37800000000E+08;  19.3217      
   4.37850000000E+08;  19.4036      
   4.37900000000E+08;  19.4764      
   4.37950000000E+08;  19.5523      
   4.38000000000E+08;  19.5975      
   4.38050000000E+08;  19.6406      
   4.38100000000E+08;  19.6695      
   4.38150000000E+08;  19.6838      
   4.38200000000E+08;  19.736       
   4.38250000000E+08;  19.7705      
   4.38300000000E+08;  19.7789      
   4.38350000000E+08;  19.7659      
   4.38400000000E+08;  19.7459      
   4.38450000000E+08;  19.7436      
   4.38500000000E+08;  19.7059      
   4.38550000000E+08;  19.6525      
   4.38600000000E+08;  19.6783      
   4.38650000000E+08;  19.7342      
   4.38700000000E+08;  19.7656      
   4.38750000000E+08;  19.76        
   4.38800000000E+08;  19.7816      
   4.38850000000E+08;  19.8284      
   4.38900000000E+08;  19.8577      
   4.38950000000E+08;  19.8565      
   4.39000000000E+08;  19.8254      
   4.39050000000E+08;  19.7933      
   4.39100000000E+08;  19.7752      
   4.39150000000E+08;  19.8265      
   4.39200000000E+08;  19.8988      
   4.39250000000E+08;  20.0044      
   4.39300000000E+08;  20.101       
   4.39350000000E+08;  20.178       
   4.39400000000E+08;  20.2051      
   4.39450000000E+08;  20.2291      
   4.39500000000E+08;  20.2527      
   4.39550000000E+08;  20.2631      
   4.39600000000E+08;  20.2644      
   4.39650000000E+08;  20.2562      
   4.39700000000E+08;  20.2292      
   4.39750000000E+08;  20.1699      
   4.39800000000E+08;  20.0738      
   4.39850000000E+08;  19.9575      
   4.39900000000E+08;  19.8738      
   4.39950000000E+08;  19.9095      
   4.40000000000E+08;  19.9472      
   4.40050000000E+08;  19.9333      
   4.40100000000E+08;  19.8662      
   4.40150000000E+08;  19.7939      
   4.40200000000E+08;  19.7404      
   4.40250000000E+08;  19.7111      
   4.40300000000E+08;  19.675       
   4.40350000000E+08;  19.6347      
   4.40400000000E+08;  19.5797      
   4.40450000000E+08;  19.5431      
   4.40500000000E+08;  19.52        
   4.40550000000E+08;  19.5064      
   4.40600000000E+08;  19.5419      
   4.40650000000E+08;  19.5804      
   4.40700000000E+08;  19.6156      
   4.40750000000E+08;  19.6598      
   4.40800000000E+08;  19.7237      
   4.40850000000E+08;  19.7723      
   4.40900000000E+08;  19.7971      
   4.40950000000E+08;  19.7891      
   4.41000000000E+08;  19.7574      
   4.41050000000E+08;  19.7103      
   4.41100000000E+08;  19.6401      
   4.41150000000E+08;  19.5927      
   4.41200000000E+08;  19.5519      
   4.41250000000E+08;  19.5267      
   4.41300000000E+08;  19.5229      
   4.41350000000E+08;  19.5017      
   4.41400000000E+08;  19.4807      
   4.41450000000E+08;  19.4414      
   4.41500000000E+08;  19.3722      
   4.41550000000E+08;  19.2833      
   4.41600000000E+08;  19.2101      
   4.41650000000E+08;  19.0987      
   4.41700000000E+08;  18.9933      
   4.41750000000E+08;  18.9373      
   4.41800000000E+08;  18.9932      
   4.41850000000E+08;  19.045       
   4.41900000000E+08;  19.0305      
   4.41950000000E+08;  18.979       
   4.42000000000E+08;  18.9312      
   4.42050000000E+08;  19.011       
   4.42100000000E+08;  19.0757      
   4.42150000000E+08;  19.0959      
   4.42200000000E+08;  19.0882      
   4.42250000000E+08;  19.0577      
   4.42300000000E+08;  19.013       
   4.42350000000E+08;  18.9691      
   4.42400000000E+08;  18.9069      
   4.42450000000E+08;  18.8219      
   4.42500000000E+08;  18.7084      
   4.42550000000E+08;  18.68        
   4.42600000000E+08;  18.797       
   4.42650000000E+08;  18.9377      
   4.42700000000E+08;  19.0233      
   4.42750000000E+08;  19.0477      
   4.42800000000E+08;  19.0262      
   4.42850000000E+08;  19.0354      
   4.42900000000E+08;  19.0569      
   4.42950000000E+08;  19.0691      
   4.43000000000E+08;  19.0708      
   4.43050000000E+08;  19.0434      
   4.43100000000E+08;  19.0275      
   4.43150000000E+08;  18.9844      
   4.43200000000E+08;  18.8981      
   4.43250000000E+08;  18.7462      
   4.43300000000E+08;  18.5484      
   4.43350000000E+08;  18.4543      
   4.43400000000E+08;  18.4116      
   4.43450000000E+08;  18.4142      
   4.43500000000E+08;  18.4811      
   4.43550000000E+08;  18.4895      
   4.43600000000E+08;  18.4962      
   4.43650000000E+08;  18.5121      
   4.43700000000E+08;  18.5245      
   4.43750000000E+08;  18.5611      
   4.43800000000E+08;  18.6019      
   4.43850000000E+08;  18.6365      
   4.43900000000E+08;  18.6522      
   4.43950000000E+08;  18.6258      
   4.44000000000E+08;  18.6236      
   4.44050000000E+08;  18.7379      
   4.44100000000E+08;  18.8746      
   4.44150000000E+08;  19.0109      
   4.44200000000E+08;  19.1136      
   4.44250000000E+08;  19.1793      
   4.44300000000E+08;  19.2254      
   4.44350000000E+08;  19.2587      
   4.44400000000E+08;  19.25        
   4.44450000000E+08;  19.1947      
   4.44500000000E+08;  19.1028      
   4.44550000000E+08;  18.9952      
   4.44600000000E+08;  18.888       
   4.44650000000E+08;  18.7869      
   4.44700000000E+08;  18.7126      
   4.44750000000E+08;  18.6522      
   4.44800000000E+08;  18.5955      
   4.44850000000E+08;  18.4985      
   4.44900000000E+08;  18.3318      
   4.44950000000E+08;  18.1162      
   4.45000000000E+08;  17.8956      
   4.45050000000E+08;  17.776       
   4.45100000000E+08;  17.6695      
   4.45150000000E+08;  17.6171      
   4.45200000000E+08;  17.6703      
   4.45250000000E+08;  17.7684      
   4.45300000000E+08;  17.8414      
   4.45350000000E+08;  17.864       
   4.45400000000E+08;  17.804       
   4.45450000000E+08;  17.7403      
   4.45500000000E+08;  17.6502      
   4.45550000000E+08;  17.4576      
   4.45600000000E+08;  17.1925      
   4.45650000000E+08;  16.9059      
   4.45700000000E+08;  16.6692      
   4.45750000000E+08;  16.5647      
   4.45800000000E+08;  16.5333      
   4.45850000000E+08;  16.479       
   4.45900000000E+08;  16.2975      
   4.45950000000E+08;  16.0394      
   4.46000000000E+08;  15.7625      
   4.46050000000E+08;  15.4628      
   4.46100000000E+08;  15.1276      
   4.46150000000E+08;  14.7661      
   4.46200000000E+08;  14.46        
   4.46250000000E+08;  14.2198      
   4.46300000000E+08;  14.0555      
   4.46350000000E+08;  13.9187      
   4.46400000000E+08;  13.7179      
   4.46450000000E+08;  13.5591      
   4.46500000000E+08;  13.482       
   4.46550000000E+08;  13.4165      
   4.46600000000E+08;  13.26        
   4.46650000000E+08;  12.9882      
   4.46700000000E+08;  12.6951      
   4.46750000000E+08;  12.5219      
   4.46800000000E+08;  12.3939      
   4.46850000000E+08;  12.2929      
   4.46900000000E+08;  12.1324      
   4.46950000000E+08;  11.9072      
   4.47000000000E+08;  11.6564      
   4.47050000000E+08;  11.4308      
   4.47100000000E+08;  11.2071      
   4.47150000000E+08;  10.9415      
   4.47200000000E+08;  10.7115      
   4.47250000000E+08;  10.4596      
   4.47300000000E+08;  10.1845      
   4.47350000000E+08;  9.96208      
   4.47400000000E+08;  9.78416      
   4.47450000000E+08;  9.65188      
   4.47500000000E+08;  9.49119      
   4.47550000000E+08;  9.2561       
   4.47600000000E+08;  8.98146      
   4.47650000000E+08;  8.68412      
   4.47700000000E+08;  8.3987       
   4.47750000000E+08;  8.13613      
   4.47800000000E+08;  7.90056      
   4.47850000000E+08;  7.64681      
   4.47900000000E+08;  7.35954      
   4.47950000000E+08;  7.07392      
   4.48000000000E+08;  6.76446      
   4.48050000000E+08;  6.46453      
   4.48100000000E+08;  6.23878      
   4.48150000000E+08;  6.07772      
   4.48200000000E+08;  5.96322      
   4.48250000000E+08;  5.81923      
   4.48300000000E+08;  5.58619      
   4.48350000000E+08;  5.29874      
   4.48400000000E+08;  5.0568       
   4.48450000000E+08;  4.90638      
   4.48500000000E+08;  4.7484       
   4.48550000000E+08;  4.53211      
   4.48600000000E+08;  4.31313      
   4.48650000000E+08;  4.07079      
   4.48700000000E+08;  3.91007      
   4.48750000000E+08;  3.85696      
   4.48800000000E+08;  3.81869      
   4.48850000000E+08;  3.72677      
   4.48900000000E+08;  3.60122      
   4.48950000000E+08;  3.46152      
   4.49000000000E+08;  3.31218      
   4.49050000000E+08;  3.19952      
   4.49100000000E+08;  3.12342      
   4.49150000000E+08;  2.98325      
   4.49200000000E+08;  2.77954      
   4.49250000000E+08;  2.51088      
   4.49300000000E+08;  2.19016      
   4.49350000000E+08;  1.91027      
   4.49400000000E+08;  1.6768       
   4.49450000000E+08;  1.45027      
   4.49500000000E+08;  1.23481      
   4.49550000000E+08;  1.00647      
   4.49600000000E+08;  0.777674     
   4.49650000000E+08;  0.523832     
   4.49700000000E+08;  0.300469     
   4.49750000000E+08;  0.128246     
   4.49800000000E+08; -0.00767392   
   4.49850000000E+08; -0.135822     
   4.49900000000E+08; -0.258451     
   4.49950000000E+08; -0.403499     
   4.50000000000E+08; -0.591017     
   4.50050000000E+08; -0.826184     
   4.50100000000E+08; -1.06338      
   4.50150000000E+08; -1.29361      
   4.50200000000E+08; -1.43415      
   4.50250000000E+08; -1.61816      
   4.50300000000E+08; -1.74955      
   4.50350000000E+08; -1.76137      
   4.50400000000E+08; -1.84214      
   4.50450000000E+08; -1.93322      
   4.50500000000E+08; -2.12594      
   4.50550000000E+08; -2.31394      
   4.50600000000E+08; -2.55168      
   4.50650000000E+08; -2.7804       
   4.50700000000E+08; -3.02333      
   4.50750000000E+08; -3.21678      
   4.50800000000E+08; -3.32916      
   4.50850000000E+08; -3.41129      
   4.50900000000E+08; -3.6043       
   4.50950000000E+08; -3.72448      
   4.51000000000E+08; -3.8152       
   4.51050000000E+08; -3.89832      
   4.51100000000E+08; -3.97431      
   4.51150000000E+08; -4.11497      
   4.51200000000E+08; -4.32277      
   4.51250000000E+08; -4.52517      
   4.51300000000E+08; -4.68385      
   4.51350000000E+08; -4.84881      
   4.51400000000E+08; -4.98449      
   4.51450000000E+08; -5.07711      
   4.51500000000E+08; -5.22671      
   4.51550000000E+08; -5.41057      
   4.51600000000E+08; -5.58808      
   4.51650000000E+08; -5.81928      
   4.51700000000E+08; -6.09635      
   4.51750000000E+08; -6.39243      
   4.51800000000E+08; -6.59118      
   4.51850000000E+08; -6.84206      
   4.51900000000E+08; -6.93201      
   4.51950000000E+08; -6.9085       
   4.52000000000E+08; -6.9057       
   4.52050000000E+08; -6.92764      
   4.52100000000E+08; -7.0006       
   4.52150000000E+08; -7.15962      
   4.52200000000E+08; -7.32109      
   4.52250000000E+08; -7.47166      
   4.52300000000E+08; -7.57158      
   4.52350000000E+08; -7.63271      
   4.52400000000E+08; -7.84319      
   4.52450000000E+08; -8.07534      
   4.52500000000E+08; -8.35597      
   4.52550000000E+08; -8.6611       
   4.52600000000E+08; -8.98452      
   4.52650000000E+08; -9.2678       
   4.52700000000E+08; -9.52878      
   4.52750000000E+08; -9.73376      
   4.52800000000E+08; -9.98186      
   4.52850000000E+08; -10.146       
   4.52900000000E+08; -10.237       
   4.52950000000E+08; -10.4461      
   4.53000000000E+08; -10.6158      
   4.53050000000E+08; -10.6275      
   4.53100000000E+08; -10.6006      
   4.53150000000E+08; -10.4909      
   4.53200000000E+08; -10.6252      
   4.53250000000E+08; -10.6976      
   4.53300000000E+08; -10.938       
   4.53350000000E+08; -11.3406      
   4.53400000000E+08; -11.7871      
   4.53450000000E+08; -12.1135      
   4.53500000000E+08; -12.4934      
   4.53550000000E+08; -12.8152      
   4.53600000000E+08; -12.9221      
   4.53650000000E+08; -12.6442      
   4.53700000000E+08; -12.0772      
   4.53750000000E+08; -11.7374      
   4.53800000000E+08; -11.7871      
   4.53850000000E+08; -11.9984      
   4.53900000000E+08; -12.0042      
   4.53950000000E+08; -11.986       
   4.54000000000E+08; -12.0365      
   4.54050000000E+08; -12.2037      
   4.54100000000E+08; -12.3449      
   4.54150000000E+08; -12.4282      
   4.54200000000E+08; -12.604       
   4.54250000000E+08; -12.6242      
   4.54300000000E+08; -12.4501      
   4.54350000000E+08; -12.5243      
   4.54400000000E+08; -12.8355      
   4.54450000000E+08; -13.3763      
   4.54500000000E+08; -13.8607      
   4.54550000000E+08; -14.2828      
   4.54600000000E+08; -14.6086      
   4.54650000000E+08; -14.6882      
   4.54700000000E+08; -14.3667      
   4.54750000000E+08; -13.7228      
   4.54800000000E+08; -13.4021      
   4.54850000000E+08; -13.4438      
   4.54900000000E+08; -13.7444      
   4.54950000000E+08; -13.9857      
   4.55000000000E+08; -14.2911      
   4.55050000000E+08; -14.625       
   4.55100000000E+08; -15.0352      
   4.55150000000E+08; -15.4009      
   4.55200000000E+08; -15.4874      
   4.55250000000E+08; -15.0725      
   4.55300000000E+08; -14.5983      
   4.55350000000E+08; -13.8631      
   4.55400000000E+08; -13.7688      
   4.55450000000E+08; -13.628       
   4.55500000000E+08; -13.9309      
   4.55550000000E+08; -14.478       
   4.55600000000E+08; -15.1482      
   4.55650000000E+08; -15.8959      
   4.55700000000E+08; -16.2378      
   4.55750000000E+08; -16.6415      
   4.55800000000E+08; -16.9751      
   4.55850000000E+08; -17.461       
   4.55900000000E+08; -17.708       
   4.55950000000E+08; -18.1139      
   4.56000000000E+08; -17.7874      
   4.56050000000E+08; -16.5071      
   4.56100000000E+08; -14.8448      
   4.56150000000E+08; -13.8013      
   4.56200000000E+08; -13.948       
   4.56250000000E+08; -14.8147      
   4.56300000000E+08; -15.7413      
   4.56350000000E+08; -16.6186      
   4.56400000000E+08; -17.2006      
   4.56450000000E+08; -17.5207      
   4.56500000000E+08; -17.204       
   4.56550000000E+08; -16.7974      
   4.56600000000E+08; -16.3599      
   4.56650000000E+08; -16.4234      
   4.56700000000E+08; -16.7043      
   4.56750000000E+08; -16.9377      
   4.56800000000E+08; -17.0237      
   4.56850000000E+08; -17.0225      
   4.56900000000E+08; -16.9016      
   4.56950000000E+08; -16.9118      
   4.57000000000E+08; -17.0986      
   4.57050000000E+08; -17.2368      
   4.57100000000E+08; -17.4183      
   4.57150000000E+08; -17.4054      
   4.57200000000E+08; -17.4732      
   4.57250000000E+08; -17.0986      
   4.57300000000E+08; -16.785       
   4.57350000000E+08; -16.7539      
   4.57400000000E+08; -16.9953      
   4.57450000000E+08; -17.5446      
   4.57500000000E+08; -18.2091      
   4.57550000000E+08; -18.7879      
   4.57600000000E+08; -19.1925      
   4.57650000000E+08; -19.6949      
   4.57700000000E+08; -20.1769      
   4.57750000000E+08; -20.2364      
   4.57800000000E+08; -19.95        
   4.57850000000E+08; -20.2308      
   4.57900000000E+08; -20.3277      
   4.57950000000E+08; -19.8404      
   4.58000000000E+08; -18.472       
   4.58050000000E+08; -17.2653      
   4.58100000000E+08; -16.6904      
   4.58150000000E+08; -16.9825      
   4.58200000000E+08; -17.5224      
   4.58250000000E+08; -17.8073      
   4.58300000000E+08; -18.4356      
   4.58350000000E+08; -18.8626      
   4.58400000000E+08; -19.1373      
   4.58450000000E+08; -19.326       
   4.58500000000E+08; -19.0029      
   4.58550000000E+08; -18.9581      
   4.58600000000E+08; -19.4045      
   4.58650000000E+08; -20.0434      
   4.58700000000E+08; -21.0879      
   4.58750000000E+08; -21.8438      
   4.58800000000E+08; -22.3945      
   4.58850000000E+08; -21.8662      
   4.58900000000E+08; -20.8857      
   4.58950000000E+08; -19.4295      
   4.59000000000E+08; -18.196       
   4.59050000000E+08; -17.5848      
   4.59100000000E+08; -17.9278      
   4.59150000000E+08; -18.564       
   4.59200000000E+08; -19.4067      
   4.59250000000E+08; -19.4631      
   4.59300000000E+08; -19.4927      
   4.59350000000E+08; -19.4644      
   4.59400000000E+08; -20.0094      
   4.59450000000E+08; -20.583       
   4.59500000000E+08; -21.4139      
   4.59550000000E+08; -22.0523      
   4.59600000000E+08; -22.5304      
   4.59650000000E+08; -23.6976      
   4.59700000000E+08; -23.7236      
   4.59750000000E+08; -22.726       
   4.59800000000E+08; -21.1528      
   4.59850000000E+08; -19.9398      
   4.59900000000E+08; -19.1077      
   4.59950000000E+08; -18.4625      
   4.60000000000E+08; -17.8581      
   4.60050000000E+08; -17.2437      
   4.60100000000E+08; -17.122       
   4.60150000000E+08; -17.6132      
   4.60200000000E+08; -18.4735      
   4.60250000000E+08; -19.1062      
   4.60300000000E+08; -19.7786      
   4.60350000000E+08; -20.5966      
   4.60400000000E+08; -21.1902      
   4.60450000000E+08; -21.576       
   4.60500000000E+08; -21.9722      
   4.60550000000E+08; -22.4292      
   4.60600000000E+08; -22.8386      
   4.60650000000E+08; -23.3114      
   4.60700000000E+08; -23.6214      
   4.60750000000E+08; -22.4215      
   4.60800000000E+08; -21.3888      
   4.60850000000E+08; -20.7482      
   4.60900000000E+08; -20.7057      
   4.60950000000E+08; -21.0278      
   4.61000000000E+08; -21.284       
   4.61050000000E+08; -21.0443      
   4.61100000000E+08; -21.4286      
   4.61150000000E+08; -21.0157      
   4.61200000000E+08; -19.7217      
   4.61250000000E+08; -18.6516      
   4.61300000000E+08; -18.2924      
   4.61350000000E+08; -18.5811      
   4.61400000000E+08; -18.959       
   4.61450000000E+08; -19.4917      
   4.61500000000E+08; -19.7513      
   4.61550000000E+08; -19.8932      
   4.61600000000E+08; -19.9942      
   4.61650000000E+08; -20.4904      
   4.61700000000E+08; -21.0746      
   4.61750000000E+08; -21.9455      
   4.61800000000E+08; -23.2175      
   4.61850000000E+08; -23.8859      
   4.61900000000E+08; -24.1765      
   4.61950000000E+08; -24.6193      
   4.62000000000E+08; -24.593       
   4.62050000000E+08; -23.6157      
   4.62100000000E+08; -22.6915      
   4.62150000000E+08; -22.0046      
   4.62200000000E+08; -21.3724      
   4.62250000000E+08; -21.5885      
   4.62300000000E+08; -21.7001      
   4.62350000000E+08; -21.3771      
   4.62400000000E+08; -21.7363      
   4.62450000000E+08; -21.0918      
   4.62500000000E+08; -20.216       
   4.62550000000E+08; -19.1999      
   4.62600000000E+08; -18.4151      
   4.62650000000E+08; -18.1637      
   4.62700000000E+08; -17.9761      
   4.62750000000E+08; -18.0478      
   4.62800000000E+08; -18.2919      
   4.62850000000E+08; -19.0056      
   4.62900000000E+08; -19.632       
   4.62950000000E+08; -19.8463      
   4.63000000000E+08; -20.3149      
   4.63050000000E+08; -21.4281      
   4.63100000000E+08; -22.6836      
   4.63150000000E+08; -23.5787      
   4.63200000000E+08; -23.9025      
   4.63250000000E+08; -22.8643      
   4.63300000000E+08; -21.9662      
   4.63350000000E+08; -21.1921      
   4.63400000000E+08; -20.7579      
   4.63450000000E+08; -20.5015      
   4.63500000000E+08; -19.8152      
   4.63550000000E+08; -18.3061      
   4.63600000000E+08; -17.3943      
   4.63650000000E+08; -17.5414      
   4.63700000000E+08; -18.2753      
   4.63750000000E+08; -18.2022      
   4.63800000000E+08; -18.7413      
   4.63850000000E+08; -19.3688      
   4.63900000000E+08; -20.3997      
   4.63950000000E+08; -21.1453      
   4.64000000000E+08; -21.7442      
   4.64050000000E+08; -21.7525      
   4.64100000000E+08; -21.4336      
   4.64150000000E+08; -21.1373      
   4.64200000000E+08; -20.8421      
   4.64250000000E+08; -20.9905      
   4.64300000000E+08; -21.6723      
   4.64350000000E+08; -22.3551      
   4.64400000000E+08; -23.0822      
   4.64450000000E+08; -24.1272      
   4.64500000000E+08; -25.4339      
   4.64550000000E+08; -26.0486      
   4.64600000000E+08; -25.5185      
   4.64650000000E+08; -24.345       
   4.64700000000E+08; -22.8681      
   4.64750000000E+08; -20.7801      
   4.64800000000E+08; -19.5277      
   4.64850000000E+08; -19.4292      
   4.64900000000E+08; -19.3257      
   4.64950000000E+08; -18.9182      
   4.65000000000E+08; -18.7372      
   4.65050000000E+08; -19.1169      
   4.65100000000E+08; -19.9578      
   4.65150000000E+08; -20.189       
   4.65200000000E+08; -20.3702      
   4.65250000000E+08; -20.3661      
   4.65300000000E+08; -21.0181      
   4.65350000000E+08; -20.998       
   4.65400000000E+08; -20.99        
   4.65450000000E+08; -20.6772      
   4.65500000000E+08; -20.1324      
   4.65550000000E+08; -19.8207      
   4.65600000000E+08; -19.2553      
   4.65650000000E+08; -19.23        
   4.65700000000E+08; -19.9779      
   4.65750000000E+08; -20.8197      
   4.65800000000E+08; -21.469       
   4.65850000000E+08; -21.7482      
   4.65900000000E+08; -20.9813      
   4.65950000000E+08; -20.6941      
   4.66000000000E+08; -21.1252      
   4.66050000000E+08; -21.5635      
   4.66100000000E+08; -20.0526      
   4.66150000000E+08; -19.5421      
   4.66200000000E+08; -19.8862      
   4.66250000000E+08; -20.6132      
   4.66300000000E+08; -21.2817      
   4.66350000000E+08; -21.8259      
   4.66400000000E+08; -22.195       
   4.66450000000E+08; -21.6998      
   4.66500000000E+08; -21.999       
   4.66550000000E+08; -21.8173      
   4.66600000000E+08; -21.2727      
   4.66650000000E+08; -20.4158      
   4.66700000000E+08; -19.8732      
   4.66750000000E+08; -19.3973      
   4.66800000000E+08; -18.8692      
   4.66850000000E+08; -18.5177      
   4.66900000000E+08; -18.6885      
   4.66950000000E+08; -19.6102      
   4.67000000000E+08; -20.9675      
   4.67050000000E+08; -22.3784      
   4.67100000000E+08; -24.4229      
   4.67150000000E+08; -26.4665      
   4.67200000000E+08; -26.0332      
   4.67250000000E+08; -25.8088      
   4.67300000000E+08; -25.5142      
   4.67350000000E+08; -25.0722      
   4.67400000000E+08; -24.8947      
   4.67450000000E+08; -24.1716      
   4.67500000000E+08; -23.4309      
   4.67550000000E+08; -23.1051      
   4.67600000000E+08; -22.934       
   4.67650000000E+08; -23.0714      
   4.67700000000E+08; -22.4322      
   4.67750000000E+08; -21.7849      
   4.67800000000E+08; -21.0758      
   4.67850000000E+08; -21.5297      
   4.67900000000E+08; -21.4565      
   4.67950000000E+08; -21.7163      
   4.68000000000E+08; -21.5791      
   4.68050000000E+08; -21.8215      
   4.68100000000E+08; -22.6044      
   4.68150000000E+08; -23.9396      
   4.68200000000E+08; -24.4546      
   4.68250000000E+08; -24.5104      
   4.68300000000E+08; -23.9376      
   4.68350000000E+08; -22.9182      
   4.68400000000E+08; -21.7435      
   4.68450000000E+08; -21.3828      
   4.68500000000E+08; -22.2874      
   4.68550000000E+08; -23.8404      
   4.68600000000E+08; -24.1202      
   4.68650000000E+08; -24.2722      
   4.68700000000E+08; -23.441       
   4.68750000000E+08; -22.5504      
   4.68800000000E+08; -21.4255      
   4.68850000000E+08; -20.7456      
   4.68900000000E+08; -20.4365      
   4.68950000000E+08; -20.8928      
   4.69000000000E+08; -21.935       
   4.69050000000E+08; -23.5116      
   4.69100000000E+08; -24.7447      
   4.69150000000E+08; -25.1812      
   4.69200000000E+08; -25.0617      
   4.69250000000E+08; -24.5958      
   4.69300000000E+08; -23.9345      
   4.69350000000E+08; -22.9322      
   4.69400000000E+08; -22.5023      
   4.69450000000E+08; -22.469       
   4.69500000000E+08; -23.5984      
   4.69550000000E+08; -24.5415      
   4.69600000000E+08; -25.3979      
   4.69650000000E+08; -26.5548      
   4.69700000000E+08; -27.6295      
   4.69750000000E+08; -28.1441      
   4.69800000000E+08; -27.0525      
   4.69850000000E+08; -26.1381      
   4.69900000000E+08; -25.7193      
   4.69950000000E+08; -26.205       
   4.70000000000E+08; -25.4922      
   4.70050000000E+08; -24.6575      
   4.70100000000E+08; -24.4824      
   4.70150000000E+08; -24.7634      
   4.70200000000E+08; -25.5182      
   4.70250000000E+08; -26.3118      
   4.70300000000E+08; -27.3426      
   4.70350000000E+08; -27.1567      
   4.70400000000E+08; -27.1921      
   4.70450000000E+08; -27.4232      
   4.70500000000E+08; -28.7644      
   4.70550000000E+08; -29.7828      
   4.70600000000E+08; -29.0774      
   4.70650000000E+08; -28.3433      
   4.70700000000E+08; -28.1757      
   4.70750000000E+08; -28.1208      
   4.70800000000E+08; -28.2961      
   4.70850000000E+08; -28.9524      
   4.70900000000E+08; -28.2744      
   4.70950000000E+08; -28.5647      
   4.71000000000E+08; -28.7502      
   4.71050000000E+08; -28.2719      
   4.71100000000E+08; -27.0036      
   4.71150000000E+08; -26.0119      
   4.71200000000E+08; -24.922       
   4.71250000000E+08; -24.9047      
   4.71300000000E+08; -26.2245      
   4.71350000000E+08; -27.1548      
   4.71400000000E+08; -27.253       
   4.71450000000E+08; -26.231       
   4.71500000000E+08; -25.6334      
   4.71550000000E+08; -25.7353      
   4.71600000000E+08; -26.2398      
   4.71650000000E+08; -26.4843      
   4.71700000000E+08; -27.3451      
   4.71750000000E+08; -27.8011      
   4.71800000000E+08; -27.9717      
   4.71850000000E+08; -27.3945      
   4.71900000000E+08; -27.5398      
   4.71950000000E+08; -29.0102      
   4.72000000000E+08; -31.7599      
   4.72050000000E+08; -32.4056      
   4.72100000000E+08; -32.0972      
   4.72150000000E+08; -30.9007      
   4.72200000000E+08; -30.2314      
   4.72250000000E+08; -29.1009      
   4.72300000000E+08; -28.8304      
   4.72350000000E+08; -28.2146      
   4.72400000000E+08; -27.2423      
   4.72450000000E+08; -27.1695      
   4.72500000000E+08; -26.8952      
   4.72550000000E+08; -26.9083      
   4.72600000000E+08; -26.6201      
   4.72650000000E+08; -26.8946      
   4.72700000000E+08; -27.2623      
   4.72750000000E+08; -28.4975      
   4.72800000000E+08; -29.9994      
   4.72850000000E+08; -31.1601      
   4.72900000000E+08; -32.3994      
   4.72950000000E+08; -35.4728      
   4.73000000000E+08; -36.7269      
   4.73050000000E+08; -37.173       
   4.73100000000E+08; -39.6797      
   4.73150000000E+08; -41.012       
   4.73200000000E+08; -42.0202      
   4.73250000000E+08; -37.3901      
   4.73300000000E+08; -34.4914      
   4.73350000000E+08; -33.4511      
   4.73400000000E+08; -34.2597      
   4.73450000000E+08; -34.9193      
   4.73500000000E+08; -35.0928      
   4.73550000000E+08; -35.6562      
   4.73600000000E+08; -35.3379      
   4.73650000000E+08; -36.0211      
   4.73700000000E+08; -34.4902      
   4.73750000000E+08; -34.1165      
   4.73800000000E+08; -33.3963      
   4.73850000000E+08; -34.5737      
   4.73900000000E+08; -36.1336      
   4.73950000000E+08; -37.0964      
   4.74000000000E+08; -34.7648      
   4.74050000000E+08; -33.4059      
   4.74100000000E+08; -32.6791      
   4.74150000000E+08; -32.8374      
   4.74200000000E+08; -33.4233      
   4.74250000000E+08; -33.6416      
   4.74300000000E+08; -35.061       
   4.74350000000E+08; -35.056       
   4.74400000000E+08; -35.9772      
   4.74450000000E+08; -38.516       
   4.74500000000E+08; -44.2755      
   4.74550000000E+08; -42.9558      
   4.74600000000E+08; -38.7052      
   4.74650000000E+08; -35.5901      
   4.74700000000E+08; -33.2583      
   4.74750000000E+08; -32.5036      
   4.74800000000E+08; -30.5291      
   4.74850000000E+08; -29.6716      
   4.74900000000E+08; -28.7718      
   4.74950000000E+08; -28.6788      
   4.75000000000E+08; -29.6034      
   4.75050000000E+08; -31.4475      
   4.75100000000E+08; -32.7477      
   4.75150000000E+08; -34.9636      
   4.75200000000E+08; -36.342       
   4.75250000000E+08; -36.6775      
   4.75300000000E+08; -39.9369      
   4.75350000000E+08; -48.7953      
   4.75400000000E+08; -47.3144      
   4.75450000000E+08; -45.719       
   4.75500000000E+08; -45.36        
   4.75550000000E+08; -46.4446      
   4.75600000000E+08; -45.3586      
   4.75650000000E+08; -46.3799      
   4.75700000000E+08; -49.52        
   4.75750000000E+08; -42.9833      
   4.75800000000E+08; -40.2684      
   4.75850000000E+08; -40.5454      
   4.75900000000E+08; -38.5176      
   4.75950000000E+08; -38.6339      
   4.76000000000E+08; -38.9915      
   4.76050000000E+08; -40.1943      
   4.76100000000E+08; -39.9297      
   4.76150000000E+08; -42.1693      
   4.76200000000E+08; -43.9607      
   4.76250000000E+08; -46.0622      
   4.76300000000E+08; -47.029       
   4.76350000000E+08; -50.1564      
   4.76400000000E+08; -48.9586      
   4.76450000000E+08; -45.9759      
   4.76500000000E+08; -46.3814      
   4.76550000000E+08; -47.9397      
   4.76600000000E+08; -46.9066      
   4.76650000000E+08; -50.5835      
   4.76700000000E+08; -52.631       
   4.76750000000E+08; -57.4108      
   4.76800000000E+08; -42.6382      
   4.76850000000E+08; -38.8639      
   4.76900000000E+08; -36.6336      
   4.76950000000E+08; -35.1335      
   4.77000000000E+08; -33.5487      
   4.77050000000E+08; -32.2511      
   4.77100000000E+08; -32.2983      
   4.77150000000E+08; -33.4188      
   4.77200000000E+08; -33.4344      
   4.77250000000E+08; -36.2345      
   4.77300000000E+08; -37.3346      
   4.77350000000E+08; -36.7944      
   4.77400000000E+08; -37.0988      
   4.77450000000E+08; -39.3135      
   4.77500000000E+08; -42.1207      
   4.77550000000E+08; -46.2751      
   4.77600000000E+08; -54.5323      
   4.77650000000E+08; -49.3257      
   4.77700000000E+08; -48.4481      
   4.77750000000E+08; -47.8439      
   4.77800000000E+08; -43.8035      
   4.77850000000E+08; -41.2117      
   4.77900000000E+08; -38.7902      
   4.77950000000E+08; -36.8071      
   4.78000000000E+08; -38.2849      
   4.78050000000E+08; -38.6921      
   4.78100000000E+08; -38.3807      
   4.78150000000E+08; -37.4912      
   4.78200000000E+08; -36.601       
   4.78250000000E+08; -36.3589      
   4.78300000000E+08; -38.8039      
   4.78350000000E+08; -39.1874      
   4.78400000000E+08; -41.1536      
   4.78450000000E+08; -45.9831      
   4.78500000000E+08; -50.0653      
   4.78550000000E+08; -43.8807      
   4.78600000000E+08; -41.7115      
   4.78650000000E+08; -36.9806      
   4.78700000000E+08; -37.4802      
   4.78750000000E+08; -40.8373      
   4.78800000000E+08; -43.2962      
   4.78850000000E+08; -43.4484      
   4.78900000000E+08; -40.9514      
   4.78950000000E+08; -38.8638      
   4.79000000000E+08; -36.3503      
   4.79050000000E+08; -35.7599      
   4.79100000000E+08; -35.13        
   4.79150000000E+08; -35.1535      
   4.79200000000E+08; -34.3138      
   4.79250000000E+08; -33.9728      
   4.79300000000E+08; -34.4133      
   4.79350000000E+08; -34.5609      
   4.79400000000E+08; -33.6985      
   4.79450000000E+08; -34.6208      
   4.79500000000E+08; -36.3146      
   4.79550000000E+08; -37.6189      
   4.79600000000E+08; -39.0633      
   4.79650000000E+08; -41.6307      
   4.79700000000E+08; -42.024       
   4.79750000000E+08; -43.4579      
   4.79800000000E+08; -44.6622      
   4.79850000000E+08; -42.7638      
   4.79900000000E+08; -44.2271      
   4.79950000000E+08; -46.5087      
   4.80000000000E+08; -46.3024      
