
  ZVRE, 2.05

  stimulus-start        ; stimulus-stop       ; stimulus-unit       ; nof-points; parameter-type; impedance-ohm
  4.00000000000E+08     ; 4.80000000000E+08   ; Hz                  ; 1601      ; S21           ; 50        

  conversion            ; time-domain         ; data-format         ; param-unit; smoothing     ; trace-math
  S                     ; none                ; MAGNITUDE           ; dB        ; none          ; none

  sweep-mode-type       ; notlinear-meas-mode 
  FUNDAMENTAL           ; none                


  freq              ;  S21          
   4.00000000000E+08; -35.6648      
   4.00050000000E+08; -39.7079      
   4.00100000000E+08; -40.4732      
   4.00150000000E+08; -38.8438      
   4.00200000000E+08; -40.6798      
   4.00250000000E+08; -39.9858      
   4.00300000000E+08; -40.4879      
   4.00350000000E+08; -40.992       
   4.00400000000E+08; -39.0291      
   4.00450000000E+08; -42.0103      
   4.00500000000E+08; -50.5872      
   4.00550000000E+08; -44.3664      
   4.00600000000E+08; -47.0927      
   4.00650000000E+08; -37.3411      
   4.00700000000E+08; -37.8382      
   4.00750000000E+08; -37.3023      
   4.00800000000E+08; -35.8412      
   4.00850000000E+08; -35.3262      
   4.00900000000E+08; -39.1876      
   4.00950000000E+08; -36.5354      
   4.01000000000E+08; -34.6864      
   4.01050000000E+08; -35.6001      
   4.01100000000E+08; -34.6257      
   4.01150000000E+08; -34.6911      
   4.01200000000E+08; -35.5055      
   4.01250000000E+08; -35.8271      
   4.01300000000E+08; -35.3135      
   4.01350000000E+08; -34.1932      
   4.01400000000E+08; -32.8434      
   4.01450000000E+08; -34.0421      
   4.01500000000E+08; -34.5955      
   4.01550000000E+08; -33.4521      
   4.01600000000E+08; -34.6206      
   4.01650000000E+08; -35.5405      
   4.01700000000E+08; -35.8204      
   4.01750000000E+08; -36.8005      
   4.01800000000E+08; -37.5778      
   4.01850000000E+08; -35.109       
   4.01900000000E+08; -35.7404      
   4.01950000000E+08; -34.6806      
   4.02000000000E+08; -33.7198      
   4.02050000000E+08; -33.6253      
   4.02100000000E+08; -33.9115      
   4.02150000000E+08; -33.986       
   4.02200000000E+08; -33.2415      
   4.02250000000E+08; -33.5642      
   4.02300000000E+08; -33.8136      
   4.02350000000E+08; -32.9602      
   4.02400000000E+08; -33.4884      
   4.02450000000E+08; -33.9416      
   4.02500000000E+08; -33.4785      
   4.02550000000E+08; -33.6005      
   4.02600000000E+08; -33.2534      
   4.02650000000E+08; -34.0733      
   4.02700000000E+08; -33.4923      
   4.02750000000E+08; -32.8784      
   4.02800000000E+08; -32.0939      
   4.02850000000E+08; -32.5372      
   4.02900000000E+08; -33.659       
   4.02950000000E+08; -34.6129      
   4.03000000000E+08; -34.037       
   4.03050000000E+08; -34.6047      
   4.03100000000E+08; -34.4768      
   4.03150000000E+08; -35.534       
   4.03200000000E+08; -35.0517      
   4.03250000000E+08; -33.8334      
   4.03300000000E+08; -32.1982      
   4.03350000000E+08; -31.7865      
   4.03400000000E+08; -33.4806      
   4.03450000000E+08; -32.7272      
   4.03500000000E+08; -32.7527      
   4.03550000000E+08; -34.1209      
   4.03600000000E+08; -37.8946      
   4.03650000000E+08; -36.7776      
   4.03700000000E+08; -34.3319      
   4.03750000000E+08; -35.6976      
   4.03800000000E+08; -34.3637      
   4.03850000000E+08; -36.9752      
   4.03900000000E+08; -35.472       
   4.03950000000E+08; -36.6445      
   4.04000000000E+08; -37.8052      
   4.04050000000E+08; -32.4147      
   4.04100000000E+08; -34.0843      
   4.04150000000E+08; -34.5722      
   4.04200000000E+08; -35.0649      
   4.04250000000E+08; -35.2698      
   4.04300000000E+08; -36.312       
   4.04350000000E+08; -36.9908      
   4.04400000000E+08; -37.3028      
   4.04450000000E+08; -37.9826      
   4.04500000000E+08; -37.913       
   4.04550000000E+08; -34.6202      
   4.04600000000E+08; -35.0121      
   4.04650000000E+08; -35.5869      
   4.04700000000E+08; -35.5638      
   4.04750000000E+08; -36.5576      
   4.04800000000E+08; -37.3423      
   4.04850000000E+08; -36.5995      
   4.04900000000E+08; -37.0858      
   4.04950000000E+08; -36.1417      
   4.05000000000E+08; -35.8646      
   4.05050000000E+08; -37.2569      
   4.05100000000E+08; -36.1505      
   4.05150000000E+08; -36.6464      
   4.05200000000E+08; -37.8295      
   4.05250000000E+08; -38.251       
   4.05300000000E+08; -36.7502      
   4.05350000000E+08; -36.3649      
   4.05400000000E+08; -36.0432      
   4.05450000000E+08; -37.7586      
   4.05500000000E+08; -37.9775      
   4.05550000000E+08; -37.5537      
   4.05600000000E+08; -37.7003      
   4.05650000000E+08; -35.7578      
   4.05700000000E+08; -36.8941      
   4.05750000000E+08; -36.9016      
   4.05800000000E+08; -38.3761      
   4.05850000000E+08; -37.1094      
   4.05900000000E+08; -36.8876      
   4.05950000000E+08; -37.2959      
   4.06000000000E+08; -38.4779      
   4.06050000000E+08; -38.7463      
   4.06100000000E+08; -37.0487      
   4.06150000000E+08; -37.7472      
   4.06200000000E+08; -39.3832      
   4.06250000000E+08; -39.6646      
   4.06300000000E+08; -37.48        
   4.06350000000E+08; -36.4421      
   4.06400000000E+08; -37.8789      
   4.06450000000E+08; -37.092       
   4.06500000000E+08; -36.2641      
   4.06550000000E+08; -36.1993      
   4.06600000000E+08; -35.8899      
   4.06650000000E+08; -36.2044      
   4.06700000000E+08; -36.6561      
   4.06750000000E+08; -36.5641      
   4.06800000000E+08; -36.6387      
   4.06850000000E+08; -35.9852      
   4.06900000000E+08; -35.3688      
   4.06950000000E+08; -35.3392      
   4.07000000000E+08; -35.5126      
   4.07050000000E+08; -35.2866      
   4.07100000000E+08; -34.9009      
   4.07150000000E+08; -35.3722      
   4.07200000000E+08; -35.2977      
   4.07250000000E+08; -36.6322      
   4.07300000000E+08; -36.2519      
   4.07350000000E+08; -35.4151      
   4.07400000000E+08; -35.8054      
   4.07450000000E+08; -34.9389      
   4.07500000000E+08; -35.0681      
   4.07550000000E+08; -35.712       
   4.07600000000E+08; -34.6552      
   4.07650000000E+08; -34.8556      
   4.07700000000E+08; -34.9772      
   4.07750000000E+08; -34.6076      
   4.07800000000E+08; -35.708       
   4.07850000000E+08; -35.2008      
   4.07900000000E+08; -34.8774      
   4.07950000000E+08; -35.0525      
   4.08000000000E+08; -34.3474      
   4.08050000000E+08; -37.6705      
   4.08100000000E+08; -38.502       
   4.08150000000E+08; -37.9551      
   4.08200000000E+08; -35.9726      
   4.08250000000E+08; -36.0316      
   4.08300000000E+08; -36.9943      
   4.08350000000E+08; -35.8258      
   4.08400000000E+08; -35.8248      
   4.08450000000E+08; -35.1136      
   4.08500000000E+08; -35.4538      
   4.08550000000E+08; -37.1313      
   4.08600000000E+08; -36.5017      
   4.08650000000E+08; -37.3799      
   4.08700000000E+08; -37.125       
   4.08750000000E+08; -36.9894      
   4.08800000000E+08; -36.8085      
   4.08850000000E+08; -37.2494      
   4.08900000000E+08; -37.1888      
   4.08950000000E+08; -35.7901      
   4.09000000000E+08; -35.7382      
   4.09050000000E+08; -35.5683      
   4.09100000000E+08; -36.2433      
   4.09150000000E+08; -36.6481      
   4.09200000000E+08; -36.7675      
   4.09250000000E+08; -35.9166      
   4.09300000000E+08; -36.409       
   4.09350000000E+08; -36.489       
   4.09400000000E+08; -36.5713      
   4.09450000000E+08; -36.6408      
   4.09500000000E+08; -36.3723      
   4.09550000000E+08; -37.3841      
   4.09600000000E+08; -37.2051      
   4.09650000000E+08; -36.5086      
   4.09700000000E+08; -35.9285      
   4.09750000000E+08; -35.6358      
   4.09800000000E+08; -34.7785      
   4.09850000000E+08; -34.9145      
   4.09900000000E+08; -35.2891      
   4.09950000000E+08; -35.5966      
   4.10000000000E+08; -35.5496      
   4.10050000000E+08; -34.701       
   4.10100000000E+08; -34.5574      
   4.10150000000E+08; -35.1402      
   4.10200000000E+08; -34.7695      
   4.10250000000E+08; -33.5084      
   4.10300000000E+08; -33.1879      
   4.10350000000E+08; -33.884       
   4.10400000000E+08; -33.5981      
   4.10450000000E+08; -33.3413      
   4.10500000000E+08; -33.25        
   4.10550000000E+08; -32.8522      
   4.10600000000E+08; -32.8204      
   4.10650000000E+08; -33.3011      
   4.10700000000E+08; -32.2573      
   4.10750000000E+08; -32.5633      
   4.10800000000E+08; -32.7098      
   4.10850000000E+08; -32.3559      
   4.10900000000E+08; -32.6309      
   4.10950000000E+08; -33.007       
   4.11000000000E+08; -32.4968      
   4.11050000000E+08; -32.8667      
   4.11100000000E+08; -32.4711      
   4.11150000000E+08; -32.6347      
   4.11200000000E+08; -32.7028      
   4.11250000000E+08; -32.5843      
   4.11300000000E+08; -32.4434      
   4.11350000000E+08; -32.0778      
   4.11400000000E+08; -32.178       
   4.11450000000E+08; -32.697       
   4.11500000000E+08; -32.6092      
   4.11550000000E+08; -32.5778      
   4.11600000000E+08; -32.343       
   4.11650000000E+08; -32.1938      
   4.11700000000E+08; -32.8101      
   4.11750000000E+08; -32.726       
   4.11800000000E+08; -33.0155      
   4.11850000000E+08; -33.4176      
   4.11900000000E+08; -33.7143      
   4.11950000000E+08; -33.676       
   4.12000000000E+08; -33.2584      
   4.12050000000E+08; -32.9833      
   4.12100000000E+08; -33.8226      
   4.12150000000E+08; -33.6827      
   4.12200000000E+08; -34.1895      
   4.12250000000E+08; -34.7504      
   4.12300000000E+08; -33.9223      
   4.12350000000E+08; -33.7468      
   4.12400000000E+08; -33.6231      
   4.12450000000E+08; -33.8191      
   4.12500000000E+08; -33.5211      
   4.12550000000E+08; -33.5805      
   4.12600000000E+08; -33.4521      
   4.12650000000E+08; -33.0049      
   4.12700000000E+08; -32.8584      
   4.12750000000E+08; -32.5264      
   4.12800000000E+08; -33.2737      
   4.12850000000E+08; -32.9384      
   4.12900000000E+08; -32.7782      
   4.12950000000E+08; -31.842       
   4.13000000000E+08; -32.0819      
   4.13050000000E+08; -30.8287      
   4.13100000000E+08; -30.7469      
   4.13150000000E+08; -30.4252      
   4.13200000000E+08; -30.2262      
   4.13250000000E+08; -29.6439      
   4.13300000000E+08; -29.3551      
   4.13350000000E+08; -28.7157      
   4.13400000000E+08; -28.4501      
   4.13450000000E+08; -28.2022      
   4.13500000000E+08; -27.5854      
   4.13550000000E+08; -27.2337      
   4.13600000000E+08; -26.8844      
   4.13650000000E+08; -25.7628      
   4.13700000000E+08; -24.8252      
   4.13750000000E+08; -24.2392      
   4.13800000000E+08; -23.4206      
   4.13850000000E+08; -22.8046      
   4.13900000000E+08; -21.9754      
   4.13950000000E+08; -21.5947      
   4.14000000000E+08; -21.0132      
   4.14050000000E+08; -19.7293      
   4.14100000000E+08; -17.9976      
   4.14150000000E+08; -15.8582      
   4.14200000000E+08; -14.2912      
   4.14250000000E+08; -13.2636      
   4.14300000000E+08; -11.8842      
   4.14350000000E+08; -12.1028      
   4.14400000000E+08; -12.0472      
   4.14450000000E+08; -10.3245      
   4.14500000000E+08; -10.4966      
   4.14550000000E+08; -11.262       
   4.14600000000E+08; -13.3372      
   4.14650000000E+08; -15.528       
   4.14700000000E+08; -16.8621      
   4.14750000000E+08; -18.6747      
   4.14800000000E+08; -21.8952      
   4.14850000000E+08; -24.8165      
   4.14900000000E+08; -25.9158      
   4.14950000000E+08; -26.3701      
   4.15000000000E+08; -25.9897      
   4.15050000000E+08; -25.4735      
   4.15100000000E+08; -24.8063      
   4.15150000000E+08; -25.6429      
   4.15200000000E+08; -27.0778      
   4.15250000000E+08; -28.2083      
   4.15300000000E+08; -29.2195      
   4.15350000000E+08; -30.3511      
   4.15400000000E+08; -32.1022      
   4.15450000000E+08; -33.8186      
   4.15500000000E+08; -34.164       
   4.15550000000E+08; -33.9197      
   4.15600000000E+08; -33.813       
   4.15650000000E+08; -33.3609      
   4.15700000000E+08; -33.0584      
   4.15750000000E+08; -33.5594      
   4.15800000000E+08; -32.6015      
   4.15850000000E+08; -31.5544      
   4.15900000000E+08; -31.3307      
   4.15950000000E+08; -30.6039      
   4.16000000000E+08; -29.0209      
   4.16050000000E+08; -27.6829      
   4.16100000000E+08; -27.0573      
   4.16150000000E+08; -27.3892      
   4.16200000000E+08; -28.6017      
   4.16250000000E+08; -28.1265      
   4.16300000000E+08; -27.2196      
   4.16350000000E+08; -26.3432      
   4.16400000000E+08; -24.4512      
   4.16450000000E+08; -22.494       
   4.16500000000E+08; -20.6148      
   4.16550000000E+08; -19.3756      
   4.16600000000E+08; -18.2003      
   4.16650000000E+08; -16.5632      
   4.16700000000E+08; -14.821       
   4.16750000000E+08; -12.8681      
   4.16800000000E+08; -10.6098      
   4.16850000000E+08; -8.36778      
   4.16900000000E+08; -6.12044      
   4.16950000000E+08; -3.59746      
   4.17000000000E+08; -1.45825      
   4.17050000000E+08;  0.188861     
   4.17100000000E+08;  0.789348     
   4.17150000000E+08;  0.67313      
   4.17200000000E+08; -0.497353     
   4.17250000000E+08; -2.55907      
   4.17300000000E+08; -3.24495      
   4.17350000000E+08; -1.99038      
   4.17400000000E+08; -1.06119      
   4.17450000000E+08; -1.59891      
   4.17500000000E+08; -2.87356      
   4.17550000000E+08; -3.80026      
   4.17600000000E+08; -4.58677      
   4.17650000000E+08; -6.05401      
   4.17700000000E+08; -7.90044      
   4.17750000000E+08; -9.99337      
   4.17800000000E+08; -11.7329      
   4.17850000000E+08; -12.7942      
   4.17900000000E+08; -14.62        
   4.17950000000E+08; -15.5447      
   4.18000000000E+08; -16.6653      
   4.18050000000E+08; -17.8651      
   4.18100000000E+08; -19.2367      
   4.18150000000E+08; -20.9665      
   4.18200000000E+08; -22.8866      
   4.18250000000E+08; -23.5149      
   4.18300000000E+08; -23.3923      
   4.18350000000E+08; -23.6297      
   4.18400000000E+08; -24.0352      
   4.18450000000E+08; -26.0842      
   4.18500000000E+08; -28.4599      
   4.18550000000E+08; -30.9179      
   4.18600000000E+08; -32.7923      
   4.18650000000E+08; -31.6236      
   4.18700000000E+08; -29.9219      
   4.18750000000E+08; -27.9335      
   4.18800000000E+08; -25.6987      
   4.18850000000E+08; -25.0551      
   4.18900000000E+08; -22.9399      
   4.18950000000E+08; -21.0743      
   4.19000000000E+08; -19.4553      
   4.19050000000E+08; -17.0178      
   4.19100000000E+08; -14.1382      
   4.19150000000E+08; -11.2753      
   4.19200000000E+08; -8.15156      
   4.19250000000E+08; -5.0614       
   4.19300000000E+08; -2.29946      
   4.19350000000E+08; -0.455885     
   4.19400000000E+08; -0.16096      
   4.19450000000E+08; -0.00594649   
   4.19500000000E+08;  1.54851      
   4.19550000000E+08;  3.00697      
   4.19600000000E+08;  4.58407      
   4.19650000000E+08;  5.03372      
   4.19700000000E+08;  4.81228      
   4.19750000000E+08;  3.98555      
   4.19800000000E+08;  1.42793      
   4.19850000000E+08; -1.85068      
   4.19900000000E+08; -5.32567      
   4.19950000000E+08; -8.20866      
   4.20000000000E+08; -10.3844      
   4.20050000000E+08; -13.1761      
   4.20100000000E+08; -16.1349      
   4.20150000000E+08; -19.7023      
   4.20200000000E+08; -23.5606      
   4.20250000000E+08; -27.8785      
   4.20300000000E+08; -31.0123      
   4.20350000000E+08; -29.1209      
   4.20400000000E+08; -25.9331      
   4.20450000000E+08; -22.3905      
   4.20500000000E+08; -19.5726      
   4.20550000000E+08; -16.5989      
   4.20600000000E+08; -14.0176      
   4.20650000000E+08; -11.8105      
   4.20700000000E+08; -9.74569      
   4.20750000000E+08; -7.61411      
   4.20800000000E+08; -5.53214      
   4.20850000000E+08; -3.55909      
   4.20900000000E+08; -1.67947      
   4.20950000000E+08;  0.128287     
   4.21000000000E+08;  1.81532      
   4.21050000000E+08;  3.40573      
   4.21100000000E+08;  4.88289      
   4.21150000000E+08;  6.27993      
   4.21200000000E+08;  7.64039      
   4.21250000000E+08;  8.92401      
   4.21300000000E+08;  10.0802      
   4.21350000000E+08;  11.1683      
   4.21400000000E+08;  12.2061      
   4.21450000000E+08;  13.1737      
   4.21500000000E+08;  14.0008      
   4.21550000000E+08;  14.6916      
   4.21600000000E+08;  15.3007      
   4.21650000000E+08;  15.8319      
   4.21700000000E+08;  16.265       
   4.21750000000E+08;  16.6624      
   4.21800000000E+08;  17.0213      
   4.21850000000E+08;  17.3412      
   4.21900000000E+08;  17.646       
   4.21950000000E+08;  17.9129      
   4.22000000000E+08;  18.1498      
   4.22050000000E+08;  18.3446      
   4.22100000000E+08;  18.5072      
   4.22150000000E+08;  18.6386      
   4.22200000000E+08;  18.7415      
   4.22250000000E+08;  18.8455      
   4.22300000000E+08;  18.9441      
   4.22350000000E+08;  19.0251      
   4.22400000000E+08;  19.0919      
   4.22450000000E+08;  19.1654      
   4.22500000000E+08;  19.2454      
   4.22550000000E+08;  19.299       
   4.22600000000E+08;  19.3352      
   4.22650000000E+08;  19.3568      
   4.22700000000E+08;  19.3759      
   4.22750000000E+08;  19.3959      
   4.22800000000E+08;  19.4232      
   4.22850000000E+08;  19.4419      
   4.22900000000E+08;  19.4652      
   4.22950000000E+08;  19.4868      
   4.23000000000E+08;  19.5145      
   4.23050000000E+08;  19.5352      
   4.23100000000E+08;  19.5455      
   4.23150000000E+08;  19.5498      
   4.23200000000E+08;  19.5663      
   4.23250000000E+08;  19.593       
   4.23300000000E+08;  19.6112      
   4.23350000000E+08;  19.6277      
   4.23400000000E+08;  19.6566      
   4.23450000000E+08;  19.7058      
   4.23500000000E+08;  19.7429      
   4.23550000000E+08;  19.7679      
   4.23600000000E+08;  19.7931      
   4.23650000000E+08;  19.8051      
   4.23700000000E+08;  19.8198      
   4.23750000000E+08;  19.824       
   4.23800000000E+08;  19.8277      
   4.23850000000E+08;  19.8196      
   4.23900000000E+08;  19.8165      
   4.23950000000E+08;  19.8205      
   4.24000000000E+08;  19.8393      
   4.24050000000E+08;  19.8641      
   4.24100000000E+08;  19.8798      
   4.24150000000E+08;  19.9013      
   4.24200000000E+08;  19.9314      
   4.24250000000E+08;  19.9439      
   4.24300000000E+08;  19.9577      
   4.24350000000E+08;  19.9685      
   4.24400000000E+08;  19.9804      
   4.24450000000E+08;  19.9968      
   4.24500000000E+08;  20.0088      
   4.24550000000E+08;  20.0253      
   4.24600000000E+08;  20.0434      
   4.24650000000E+08;  20.0679      
   4.24700000000E+08;  20.0962      
   4.24750000000E+08;  20.1193      
   4.24800000000E+08;  20.1497      
   4.24850000000E+08;  20.1857      
   4.24900000000E+08;  20.2067      
   4.24950000000E+08;  20.212       
   4.25000000000E+08;  20.2225      
   4.25050000000E+08;  20.2288      
   4.25100000000E+08;  20.2388      
   4.25150000000E+08;  20.247       
   4.25200000000E+08;  20.2529      
   4.25250000000E+08;  20.2521      
   4.25300000000E+08;  20.2621      
   4.25350000000E+08;  20.2755      
   4.25400000000E+08;  20.2855      
   4.25450000000E+08;  20.3029      
   4.25500000000E+08;  20.3132      
   4.25550000000E+08;  20.3094      
   4.25600000000E+08;  20.2976      
   4.25650000000E+08;  20.289       
   4.25700000000E+08;  20.2871      
   4.25750000000E+08;  20.2886      
   4.25800000000E+08;  20.2827      
   4.25850000000E+08;  20.284       
   4.25900000000E+08;  20.291       
   4.25950000000E+08;  20.2978      
   4.26000000000E+08;  20.2967      
   4.26050000000E+08;  20.2829      
   4.26100000000E+08;  20.2593      
   4.26150000000E+08;  20.2097      
   4.26200000000E+08;  20.1505      
   4.26250000000E+08;  20.1042      
   4.26300000000E+08;  20.0788      
   4.26350000000E+08;  20.0887      
   4.26400000000E+08;  20.1037      
   4.26450000000E+08;  20.1041      
   4.26500000000E+08;  20.1032      
   4.26550000000E+08;  20.1029      
   4.26600000000E+08;  20.1031      
   4.26650000000E+08;  20.0859      
   4.26700000000E+08;  20.0567      
   4.26750000000E+08;  20.0289      
   4.26800000000E+08;  20.0092      
   4.26850000000E+08;  20.002       
   4.26900000000E+08;  20.0114      
   4.26950000000E+08;  20.0174      
   4.27000000000E+08;  20.0157      
   4.27050000000E+08;  20.0009      
   4.27100000000E+08;  19.9876      
   4.27150000000E+08;  19.9757      
   4.27200000000E+08;  19.962       
   4.27250000000E+08;  19.9527      
   4.27300000000E+08;  19.9347      
   4.27350000000E+08;  19.9121      
   4.27400000000E+08;  19.871       
   4.27450000000E+08;  19.837       
   4.27500000000E+08;  19.8223      
   4.27550000000E+08;  19.8335      
   4.27600000000E+08;  19.844       
   4.27650000000E+08;  19.8525      
   4.27700000000E+08;  19.8545      
   4.27750000000E+08;  19.8513      
   4.27800000000E+08;  19.8462      
   4.27850000000E+08;  19.827       
   4.27900000000E+08;  19.8081      
   4.27950000000E+08;  19.79        
   4.28000000000E+08;  19.7838      
   4.28050000000E+08;  19.7768      
   4.28100000000E+08;  19.7859      
   4.28150000000E+08;  19.8094      
   4.28200000000E+08;  19.8249      
   4.28250000000E+08;  19.8606      
   4.28300000000E+08;  19.8963      
   4.28350000000E+08;  19.9158      
   4.28400000000E+08;  19.9364      
   4.28450000000E+08;  19.9525      
   4.28500000000E+08;  19.9748      
   4.28550000000E+08;  19.9913      
   4.28600000000E+08;  19.9997      
   4.28650000000E+08;  20.0066      
   4.28700000000E+08;  20.0131      
   4.28750000000E+08;  20.0228      
   4.28800000000E+08;  20.0235      
   4.28850000000E+08;  20.0159      
   4.28900000000E+08;  20.0121      
   4.28950000000E+08;  19.995       
   4.29000000000E+08;  19.98        
   4.29050000000E+08;  19.9591      
   4.29100000000E+08;  19.9559      
   4.29150000000E+08;  19.9723      
   4.29200000000E+08;  19.9966      
   4.29250000000E+08;  20.0139      
   4.29300000000E+08;  20.0232      
   4.29350000000E+08;  20.036       
   4.29400000000E+08;  20.0711      
   4.29450000000E+08;  20.1244      
   4.29500000000E+08;  20.1743      
   4.29550000000E+08;  20.2035      
   4.29600000000E+08;  20.2219      
   4.29650000000E+08;  20.2425      
   4.29700000000E+08;  20.2759      
   4.29750000000E+08;  20.319       
   4.29800000000E+08;  20.3476      
   4.29850000000E+08;  20.3639      
   4.29900000000E+08;  20.3776      
   4.29950000000E+08;  20.3784      
   4.30000000000E+08;  20.3633      
   4.30050000000E+08;  20.3516      
   4.30100000000E+08;  20.3514      
   4.30150000000E+08;  20.3589      
   4.30200000000E+08;  20.3727      
   4.30250000000E+08;  20.3828      
   4.30300000000E+08;  20.3835      
   4.30350000000E+08;  20.4002      
   4.30400000000E+08;  20.4061      
   4.30450000000E+08;  20.424       
   4.30500000000E+08;  20.4341      
   4.30550000000E+08;  20.4323      
   4.30600000000E+08;  20.4291      
   4.30650000000E+08;  20.4245      
   4.30700000000E+08;  20.422       
   4.30750000000E+08;  20.4534      
   4.30800000000E+08;  20.4941      
   4.30850000000E+08;  20.5376      
   4.30900000000E+08;  20.5753      
   4.30950000000E+08;  20.624       
   4.31000000000E+08;  20.671       
   4.31050000000E+08;  20.6999      
   4.31100000000E+08;  20.7038      
   4.31150000000E+08;  20.7049      
   4.31200000000E+08;  20.7025      
   4.31250000000E+08;  20.7027      
   4.31300000000E+08;  20.6954      
   4.31350000000E+08;  20.6885      
   4.31400000000E+08;  20.6848      
   4.31450000000E+08;  20.6731      
   4.31500000000E+08;  20.6599      
   4.31550000000E+08;  20.6527      
   4.31600000000E+08;  20.6423      
   4.31650000000E+08;  20.6282      
   4.31700000000E+08;  20.6039      
   4.31750000000E+08;  20.5887      
   4.31800000000E+08;  20.5826      
   4.31850000000E+08;  20.586       
   4.31900000000E+08;  20.5771      
   4.31950000000E+08;  20.5551      
   4.32000000000E+08;  20.5382      
   4.32050000000E+08;  20.5123      
   4.32100000000E+08;  20.4697      
   4.32150000000E+08;  20.4115      
   4.32200000000E+08;  20.3311      
   4.32250000000E+08;  20.2672      
   4.32300000000E+08;  20.242       
   4.32350000000E+08;  20.2393      
   4.32400000000E+08;  20.2352      
   4.32450000000E+08;  20.2178      
   4.32500000000E+08;  20.2003      
   4.32550000000E+08;  20.1807      
   4.32600000000E+08;  20.1576      
   4.32650000000E+08;  20.1524      
   4.32700000000E+08;  20.1302      
   4.32750000000E+08;  20.1117      
   4.32800000000E+08;  20.082       
   4.32850000000E+08;  20.0453      
   4.32900000000E+08;  20.0123      
   4.32950000000E+08;  19.9973      
   4.33000000000E+08;  20.0028      
   4.33050000000E+08;  20.0085      
   4.33100000000E+08;  20.0014      
   4.33150000000E+08;  20.0009      
   4.33200000000E+08;  19.9852      
   4.33250000000E+08;  19.964       
   4.33300000000E+08;  19.9397      
   4.33350000000E+08;  19.9175      
   4.33400000000E+08;  19.9094      
   4.33450000000E+08;  19.8918      
   4.33500000000E+08;  19.8617      
   4.33550000000E+08;  19.8277      
   4.33600000000E+08;  19.786       
   4.33650000000E+08;  19.7449      
   4.33700000000E+08;  19.7113      
   4.33750000000E+08;  19.665       
   4.33800000000E+08;  19.6026      
   4.33850000000E+08;  19.5379      
   4.33900000000E+08;  19.4699      
   4.33950000000E+08;  19.4218      
   4.34000000000E+08;  19.3908      
   4.34050000000E+08;  19.3428      
   4.34100000000E+08;  19.2875      
   4.34150000000E+08;  19.2543      
   4.34200000000E+08;  19.235       
   4.34250000000E+08;  19.2447      
   4.34300000000E+08;  19.2325      
   4.34350000000E+08;  19.2208      
   4.34400000000E+08;  19.2123      
   4.34450000000E+08;  19.2264      
   4.34500000000E+08;  19.2379      
   4.34550000000E+08;  19.243       
   4.34600000000E+08;  19.2365      
   4.34650000000E+08;  19.2294      
   4.34700000000E+08;  19.2366      
   4.34750000000E+08;  19.2336      
   4.34800000000E+08;  19.2163      
   4.34850000000E+08;  19.1798      
   4.34900000000E+08;  19.1385      
   4.34950000000E+08;  19.1259      
   4.35000000000E+08;  19.1119      
   4.35050000000E+08;  19.0937      
   4.35100000000E+08;  19.0778      
   4.35150000000E+08;  19.0612      
   4.35200000000E+08;  19.0614      
   4.35250000000E+08;  19.0431      
   4.35300000000E+08;  19.0135      
   4.35350000000E+08;  18.9883      
   4.35400000000E+08;  18.9509      
   4.35450000000E+08;  18.9336      
   4.35500000000E+08;  18.9318      
   4.35550000000E+08;  18.9412      
   4.35600000000E+08;  18.9341      
   4.35650000000E+08;  18.9225      
   4.35700000000E+08;  18.9206      
   4.35750000000E+08;  18.9387      
   4.35800000000E+08;  18.96        
   4.35850000000E+08;  18.9749      
   4.35900000000E+08;  18.9809      
   4.35950000000E+08;  18.9865      
   4.36000000000E+08;  18.9987      
   4.36050000000E+08;  19.0218      
   4.36100000000E+08;  19.0566      
   4.36150000000E+08;  19.1048      
   4.36200000000E+08;  19.1325      
   4.36250000000E+08;  19.1407      
   4.36300000000E+08;  19.1471      
   4.36350000000E+08;  19.1416      
   4.36400000000E+08;  19.1068      
   4.36450000000E+08;  19.0565      
   4.36500000000E+08;  19.0489      
   4.36550000000E+08;  19.0747      
   4.36600000000E+08;  19.0998      
   4.36650000000E+08;  19.1334      
   4.36700000000E+08;  19.1687      
   4.36750000000E+08;  19.1986      
   4.36800000000E+08;  19.2337      
   4.36850000000E+08;  19.2721      
   4.36900000000E+08;  19.2921      
   4.36950000000E+08;  19.2995      
   4.37000000000E+08;  19.2486      
   4.37050000000E+08;  19.1386      
   4.37100000000E+08;  19.0659      
   4.37150000000E+08;  19.0601      
   4.37200000000E+08;  19.0675      
   4.37250000000E+08;  19.0694      
   4.37300000000E+08;  19.0865      
   4.37350000000E+08;  19.1192      
   4.37400000000E+08;  19.1691      
   4.37450000000E+08;  19.2337      
   4.37500000000E+08;  19.3023      
   4.37550000000E+08;  19.3524      
   4.37600000000E+08;  19.3657      
   4.37650000000E+08;  19.3868      
   4.37700000000E+08;  19.4309      
   4.37750000000E+08;  19.4972      
   4.37800000000E+08;  19.5558      
   4.37850000000E+08;  19.5872      
   4.37900000000E+08;  19.6104      
   4.37950000000E+08;  19.6143      
   4.38000000000E+08;  19.6304      
   4.38050000000E+08;  19.6394      
   4.38100000000E+08;  19.6808      
   4.38150000000E+08;  19.7273      
   4.38200000000E+08;  19.7729      
   4.38250000000E+08;  19.8124      
   4.38300000000E+08;  19.8282      
   4.38350000000E+08;  19.8689      
   4.38400000000E+08;  19.9326      
   4.38450000000E+08;  19.9332      
   4.38500000000E+08;  19.8914      
   4.38550000000E+08;  19.8748      
   4.38600000000E+08;  19.8664      
   4.38650000000E+08;  19.8445      
   4.38700000000E+08;  19.8579      
   4.38750000000E+08;  19.8982      
   4.38800000000E+08;  19.9281      
   4.38850000000E+08;  19.9266      
   4.38900000000E+08;  19.8678      
   4.38950000000E+08;  19.8046      
   4.39000000000E+08;  19.7652      
   4.39050000000E+08;  19.7583      
   4.39100000000E+08;  19.8929      
   4.39150000000E+08;  20.0382      
   4.39200000000E+08;  20.1157      
   4.39250000000E+08;  20.1515      
   4.39300000000E+08;  20.1696      
   4.39350000000E+08;  20.1874      
   4.39400000000E+08;  20.2165      
   4.39450000000E+08;  20.2538      
   4.39500000000E+08;  20.3001      
   4.39550000000E+08;  20.318       
   4.39600000000E+08;  20.3321      
   4.39650000000E+08;  20.3489      
   4.39700000000E+08;  20.3376      
   4.39750000000E+08;  20.2449      
   4.39800000000E+08;  20.0995      
   4.39850000000E+08;  20.0795      
   4.39900000000E+08;  20.1973      
   4.39950000000E+08;  20.1936      
   4.40000000000E+08;  20.1285      
   4.40050000000E+08;  20.0402      
   4.40100000000E+08;  19.978       
   4.40150000000E+08;  19.8954      
   4.40200000000E+08;  19.8037      
   4.40250000000E+08;  19.7762      
   4.40300000000E+08;  19.7859      
   4.40350000000E+08;  19.7828      
   4.40400000000E+08;  19.7424      
   4.40450000000E+08;  19.6759      
   4.40500000000E+08;  19.646       
   4.40550000000E+08;  19.6459      
   4.40600000000E+08;  19.6787      
   4.40650000000E+08;  19.7825      
   4.40700000000E+08;  19.8719      
   4.40750000000E+08;  19.8966      
   4.40800000000E+08;  19.8913      
   4.40850000000E+08;  19.8729      
   4.40900000000E+08;  19.8933      
   4.40950000000E+08;  19.9469      
   4.41000000000E+08;  19.9738      
   4.41050000000E+08;  19.9759      
   4.41100000000E+08;  19.9549      
   4.41150000000E+08;  19.9494      
   4.41200000000E+08;  19.9413      
   4.41250000000E+08;  19.9238      
   4.41300000000E+08;  19.9128      
   4.41350000000E+08;  19.8925      
   4.41400000000E+08;  19.853       
   4.41450000000E+08;  19.7991      
   4.41500000000E+08;  19.7469      
   4.41550000000E+08;  19.6839      
   4.41600000000E+08;  19.5619      
   4.41650000000E+08;  19.4293      
   4.41700000000E+08;  19.3806      
   4.41750000000E+08;  19.4096      
   4.41800000000E+08;  19.3808      
   4.41850000000E+08;  19.3095      
   4.41900000000E+08;  19.2522      
   4.41950000000E+08;  19.2888      
   4.42000000000E+08;  19.3187      
   4.42050000000E+08;  19.2571      
   4.42100000000E+08;  19.1721      
   4.42150000000E+08;  19.1289      
   4.42200000000E+08;  19.1134      
   4.42250000000E+08;  19.1418      
   4.42300000000E+08;  19.1983      
   4.42350000000E+08;  19.2461      
   4.42400000000E+08;  19.2476      
   4.42450000000E+08;  19.2673      
   4.42500000000E+08;  19.3473      
   4.42550000000E+08;  19.4026      
   4.42600000000E+08;  19.3965      
   4.42650000000E+08;  19.3255      
   4.42700000000E+08;  19.2388      
   4.42750000000E+08;  19.1566      
   4.42800000000E+08;  19.1461      
   4.42850000000E+08;  19.2094      
   4.42900000000E+08;  19.2838      
   4.42950000000E+08;  19.3087      
   4.43000000000E+08;  19.2989      
   4.43050000000E+08;  19.3123      
   4.43100000000E+08;  19.2927      
   4.43150000000E+08;  19.2585      
   4.43200000000E+08;  19.2431      
   4.43250000000E+08;  19.2728      
   4.43300000000E+08;  19.3049      
   4.43350000000E+08;  19.2462      
   4.43400000000E+08;  19.1185      
   4.43450000000E+08;  19.0118      
   4.43500000000E+08;  18.9587      
   4.43550000000E+08;  18.9948      
   4.43600000000E+08;  19.0524      
   4.43650000000E+08;  19.0551      
   4.43700000000E+08;  18.9918      
   4.43750000000E+08;  18.9391      
   4.43800000000E+08;  18.9206      
   4.43850000000E+08;  18.8693      
   4.43900000000E+08;  18.7532      
   4.43950000000E+08;  18.7034      
   4.44000000000E+08;  18.7781      
   4.44050000000E+08;  18.9384      
   4.44100000000E+08;  19.1373      
   4.44150000000E+08;  19.258       
   4.44200000000E+08;  19.2933      
   4.44250000000E+08;  19.34        
   4.44300000000E+08;  19.4016      
   4.44350000000E+08;  19.4264      
   4.44400000000E+08;  19.4168      
   4.44450000000E+08;  19.3821      
   4.44500000000E+08;  19.3303      
   4.44550000000E+08;  19.3022      
   4.44600000000E+08;  19.3004      
   4.44650000000E+08;  19.276       
   4.44700000000E+08;  19.2291      
   4.44750000000E+08;  19.0986      
   4.44800000000E+08;  18.8754      
   4.44850000000E+08;  18.5834      
   4.44900000000E+08;  18.2006      
   4.44950000000E+08;  17.8147      
   4.45000000000E+08;  17.3915      
   4.45050000000E+08;  17.1319      
   4.45100000000E+08;  17.1024      
   4.45150000000E+08;  17.2448      
   4.45200000000E+08;  17.3596      
   4.45250000000E+08;  17.4577      
   4.45300000000E+08;  17.4941      
   4.45350000000E+08;  17.4536      
   4.45400000000E+08;  17.5003      
   4.45450000000E+08;  17.582       
   4.45500000000E+08;  17.596       
   4.45550000000E+08;  17.5701      
   4.45600000000E+08;  17.4911      
   4.45650000000E+08;  17.3463      
   4.45700000000E+08;  17.1359      
   4.45750000000E+08;  16.8732      
   4.45800000000E+08;  16.5604      
   4.45850000000E+08;  16.2266      
   4.45900000000E+08;  15.9165      
   4.45950000000E+08;  15.6554      
   4.46000000000E+08;  15.3574      
   4.46050000000E+08;  14.9948      
   4.46100000000E+08;  14.6167      
   4.46150000000E+08;  14.3375      
   4.46200000000E+08;  14.1697      
   4.46250000000E+08;  14.0409      
   4.46300000000E+08;  13.8695      
   4.46350000000E+08;  13.7046      
   4.46400000000E+08;  13.5676      
   4.46450000000E+08;  13.4979      
   4.46500000000E+08;  13.4071      
   4.46550000000E+08;  13.199       
   4.46600000000E+08;  12.904       
   4.46650000000E+08;  12.6549      
   4.46700000000E+08;  12.4653      
   4.46750000000E+08;  12.3743      
   4.46800000000E+08;  12.2141      
   4.46850000000E+08;  11.9225      
   4.46900000000E+08;  11.6094      
   4.46950000000E+08;  11.2701      
   4.47000000000E+08;  10.9123      
   4.47050000000E+08;  10.5478      
   4.47100000000E+08;  10.2304      
   4.47150000000E+08;  10.0212      
   4.47200000000E+08;  9.83572      
   4.47250000000E+08;  9.58848      
   4.47300000000E+08;  9.37258      
   4.47350000000E+08;  9.33729      
   4.47400000000E+08;  9.41747      
   4.47450000000E+08;  9.49881      
   4.47500000000E+08;  9.46819      
   4.47550000000E+08;  9.30404      
   4.47600000000E+08;  9.05709      
   4.47650000000E+08;  8.76478      
   4.47700000000E+08;  8.42469      
   4.47750000000E+08;  8.08578      
   4.47800000000E+08;  7.78765      
   4.47850000000E+08;  7.50169      
   4.47900000000E+08;  7.23849      
   4.47950000000E+08;  6.97111      
   4.48000000000E+08;  6.6769       
   4.48050000000E+08;  6.38499      
   4.48100000000E+08;  6.10095      
   4.48150000000E+08;  5.84635      
   4.48200000000E+08;  5.55883      
   4.48250000000E+08;  5.31178      
   4.48300000000E+08;  5.1402       
   4.48350000000E+08;  5.04602      
   4.48400000000E+08;  4.96224      
   4.48450000000E+08;  4.87116      
   4.48500000000E+08;  4.77977      
   4.48550000000E+08;  4.63502      
   4.48600000000E+08;  4.37599      
   4.48650000000E+08;  4.12458      
   4.48700000000E+08;  3.88203      
   4.48750000000E+08;  3.70788      
   4.48800000000E+08;  3.59222      
   4.48850000000E+08;  3.46088      
   4.48900000000E+08;  3.32208      
   4.48950000000E+08;  3.14955      
   4.49000000000E+08;  2.93876      
   4.49050000000E+08;  2.71007      
   4.49100000000E+08;  2.47366      
   4.49150000000E+08;  2.21419      
   4.49200000000E+08;  1.95715      
   4.49250000000E+08;  1.71974      
   4.49300000000E+08;  1.49495      
   4.49350000000E+08;  1.36297      
   4.49400000000E+08;  1.25746      
   4.49450000000E+08;  1.069        
   4.49500000000E+08;  0.852694     
   4.49550000000E+08;  0.691915     
   4.49600000000E+08;  0.559671     
   4.49650000000E+08;  0.473569     
   4.49700000000E+08;  0.398193     
   4.49750000000E+08;  0.265845     
   4.49800000000E+08;  0.102806     
   4.49850000000E+08; -0.1013       
   4.49900000000E+08; -0.338471     
   4.49950000000E+08; -0.591651     
   4.50000000000E+08; -0.848897     
   4.50050000000E+08; -1.17264      
   4.50100000000E+08; -1.42831      
   4.50150000000E+08; -1.58876      
   4.50200000000E+08; -1.72027      
   4.50250000000E+08; -1.83573      
   4.50300000000E+08; -2.00474      
   4.50350000000E+08; -2.14701      
   4.50400000000E+08; -2.22279      
   4.50450000000E+08; -2.28957      
   4.50500000000E+08; -2.38492      
   4.50550000000E+08; -2.54676      
   4.50600000000E+08; -2.70352      
   4.50650000000E+08; -2.83306      
   4.50700000000E+08; -2.94824      
   4.50750000000E+08; -3.0935       
   4.50800000000E+08; -3.19848      
   4.50850000000E+08; -3.29153      
   4.50900000000E+08; -3.41681      
   4.50950000000E+08; -3.62228      
   4.51000000000E+08; -3.86314      
   4.51050000000E+08; -4.16012      
   4.51100000000E+08; -4.37541      
   4.51150000000E+08; -4.5593       
   4.51200000000E+08; -4.73998      
   4.51250000000E+08; -4.95888      
   4.51300000000E+08; -5.21841      
   4.51350000000E+08; -5.43972      
   4.51400000000E+08; -5.55216      
   4.51450000000E+08; -5.55893      
   4.51500000000E+08; -5.56247      
   4.51550000000E+08; -5.66566      
   4.51600000000E+08; -5.86775      
   4.51650000000E+08; -6.09121      
   4.51700000000E+08; -6.3392       
   4.51750000000E+08; -6.58288      
   4.51800000000E+08; -6.96415      
   4.51850000000E+08; -7.35245      
   4.51900000000E+08; -7.6536       
   4.51950000000E+08; -7.8422       
   4.52000000000E+08; -7.87591      
   4.52050000000E+08; -7.89357      
   4.52100000000E+08; -7.88482      
   4.52150000000E+08; -7.95732      
   4.52200000000E+08; -8.12433      
   4.52250000000E+08; -8.22824      
   4.52300000000E+08; -8.31016      
   4.52350000000E+08; -8.40723      
   4.52400000000E+08; -8.56305      
   4.52450000000E+08; -8.724        
   4.52500000000E+08; -8.99674      
   4.52550000000E+08; -9.30242      
   4.52600000000E+08; -9.50739      
   4.52650000000E+08; -9.77958      
   4.52700000000E+08; -9.94752      
   4.52750000000E+08; -10.0747      
   4.52800000000E+08; -10.3063      
   4.52850000000E+08; -10.6428      
   4.52900000000E+08; -10.8413      
   4.52950000000E+08; -10.9402      
   4.53000000000E+08; -11.0508      
   4.53050000000E+08; -11.1248      
   4.53100000000E+08; -11.1741      
   4.53150000000E+08; -11.2164      
   4.53200000000E+08; -11.2286      
   4.53250000000E+08; -11.5223      
   4.53300000000E+08; -11.913       
   4.53350000000E+08; -12.1008      
   4.53400000000E+08; -12.0802      
   4.53450000000E+08; -11.8482      
   4.53500000000E+08; -11.7339      
   4.53550000000E+08; -11.678       
   4.53600000000E+08; -11.6326      
   4.53650000000E+08; -11.9529      
   4.53700000000E+08; -12.0187      
   4.53750000000E+08; -11.683       
   4.53800000000E+08; -11.8475      
   4.53850000000E+08; -12.4324      
   4.53900000000E+08; -12.9297      
   4.53950000000E+08; -13.1722      
   4.54000000000E+08; -12.924       
   4.54050000000E+08; -12.2815      
   4.54100000000E+08; -11.8721      
   4.54150000000E+08; -12.0798      
   4.54200000000E+08; -12.3868      
   4.54250000000E+08; -12.7286      
   4.54300000000E+08; -13.0851      
   4.54350000000E+08; -13.3582      
   4.54400000000E+08; -13.6554      
   4.54450000000E+08; -13.7821      
   4.54500000000E+08; -14.0554      
   4.54550000000E+08; -14.4509      
   4.54600000000E+08; -14.3853      
   4.54650000000E+08; -13.3055      
   4.54700000000E+08; -12.427       
   4.54750000000E+08; -12.5208      
   4.54800000000E+08; -13.0187      
   4.54850000000E+08; -13.4565      
   4.54900000000E+08; -14.0819      
   4.54950000000E+08; -14.7153      
   4.55000000000E+08; -15.232       
   4.55050000000E+08; -15.5984      
   4.55100000000E+08; -15.803       
   4.55150000000E+08; -15.6322      
   4.55200000000E+08; -14.8967      
   4.55250000000E+08; -14.0948      
   4.55300000000E+08; -13.6387      
   4.55350000000E+08; -13.6653      
   4.55400000000E+08; -14.0229      
   4.55450000000E+08; -14.2674      
   4.55500000000E+08; -14.7067      
   4.55550000000E+08; -15.3089      
   4.55600000000E+08; -15.7915      
   4.55650000000E+08; -15.8673      
   4.55700000000E+08; -15.7738      
   4.55750000000E+08; -15.7224      
   4.55800000000E+08; -15.3955      
   4.55850000000E+08; -15.229       
   4.55900000000E+08; -15.2269      
   4.55950000000E+08; -15.0339      
   4.56000000000E+08; -14.7794      
   4.56050000000E+08; -14.7481      
   4.56100000000E+08; -14.9365      
   4.56150000000E+08; -15.6567      
   4.56200000000E+08; -16.4482      
   4.56250000000E+08; -17.2127      
   4.56300000000E+08; -17.8804      
   4.56350000000E+08; -18.4042      
   4.56400000000E+08; -18.6889      
   4.56450000000E+08; -18.4479      
   4.56500000000E+08; -17.8317      
   4.56550000000E+08; -17.2232      
   4.56600000000E+08; -16.3283      
   4.56650000000E+08; -15.6161      
   4.56700000000E+08; -15.1022      
   4.56750000000E+08; -14.4833      
   4.56800000000E+08; -14.2285      
   4.56850000000E+08; -14.6246      
   4.56900000000E+08; -15.3689      
   4.56950000000E+08; -16.0801      
   4.57000000000E+08; -16.5823      
   4.57050000000E+08; -16.6868      
   4.57100000000E+08; -17.0106      
   4.57150000000E+08; -17.7833      
   4.57200000000E+08; -18.3638      
   4.57250000000E+08; -18.9138      
   4.57300000000E+08; -19.5588      
   4.57350000000E+08; -20.0852      
   4.57400000000E+08; -20.3055      
   4.57450000000E+08; -19.7858      
   4.57500000000E+08; -19.1437      
   4.57550000000E+08; -18.3233      
   4.57600000000E+08; -17.6067      
   4.57650000000E+08; -16.8837      
   4.57700000000E+08; -16.0402      
   4.57750000000E+08; -16.1288      
   4.57800000000E+08; -16.7153      
   4.57850000000E+08; -17.4827      
   4.57900000000E+08; -17.9555      
   4.57950000000E+08; -17.993       
   4.58000000000E+08; -17.7522      
   4.58050000000E+08; -17.7569      
   4.58100000000E+08; -18.1163      
   4.58150000000E+08; -18.8914      
   4.58200000000E+08; -19.4321      
   4.58250000000E+08; -20.205       
   4.58300000000E+08; -20.7802      
   4.58350000000E+08; -21.4807      
   4.58400000000E+08; -21.2388      
   4.58450000000E+08; -20.105       
   4.58500000000E+08; -18.7105      
   4.58550000000E+08; -18.2628      
   4.58600000000E+08; -18.4057      
   4.58650000000E+08; -18.2755      
   4.58700000000E+08; -18.0985      
   4.58750000000E+08; -17.8489      
   4.58800000000E+08; -17.7094      
   4.58850000000E+08; -17.6174      
   4.58900000000E+08; -18.0301      
   4.58950000000E+08; -18.952       
   4.59000000000E+08; -19.2698      
   4.59050000000E+08; -19.3099      
   4.59100000000E+08; -19.2886      
   4.59150000000E+08; -19.4683      
   4.59200000000E+08; -19.7972      
   4.59250000000E+08; -20.745       
   4.59300000000E+08; -21.4407      
   4.59350000000E+08; -21.1791      
   4.59400000000E+08; -20.9981      
   4.59450000000E+08; -21.5475      
   4.59500000000E+08; -21.4649      
   4.59550000000E+08; -20.22        
   4.59600000000E+08; -18.7801      
   4.59650000000E+08; -18.0457      
   4.59700000000E+08; -18.0336      
   4.59750000000E+08; -18.4995      
   4.59800000000E+08; -18.8636      
   4.59850000000E+08; -19.263       
   4.59900000000E+08; -19.4372      
   4.59950000000E+08; -19.0028      
   4.60000000000E+08; -18.7911      
   4.60050000000E+08; -18.655       
   4.60100000000E+08; -19.3818      
   4.60150000000E+08; -20.078       
   4.60200000000E+08; -20.1415      
   4.60250000000E+08; -19.9305      
   4.60300000000E+08; -20.4494      
   4.60350000000E+08; -20.3115      
   4.60400000000E+08; -20.3748      
   4.60450000000E+08; -20.484       
   4.60500000000E+08; -20.3707      
   4.60550000000E+08; -20.4157      
   4.60600000000E+08; -20.8755      
   4.60650000000E+08; -20.5556      
   4.60700000000E+08; -20.5391      
   4.60750000000E+08; -20.5211      
   4.60800000000E+08; -20.3096      
   4.60850000000E+08; -20.583       
   4.60900000000E+08; -20.819       
   4.60950000000E+08; -21.3147      
   4.61000000000E+08; -21.7145      
   4.61050000000E+08; -22.0705      
   4.61100000000E+08; -21.6537      
   4.61150000000E+08; -20.1782      
   4.61200000000E+08; -18.7217      
   4.61250000000E+08; -18.0869      
   4.61300000000E+08; -17.8461      
   4.61350000000E+08; -17.7151      
   4.61400000000E+08; -17.8216      
   4.61450000000E+08; -17.6899      
   4.61500000000E+08; -17.5554      
   4.61550000000E+08; -17.7153      
   4.61600000000E+08; -18.0842      
   4.61650000000E+08; -18.8053      
   4.61700000000E+08; -19.4418      
   4.61750000000E+08; -20.1803      
   4.61800000000E+08; -20.5403      
   4.61850000000E+08; -21.1559      
   4.61900000000E+08; -21.9542      
   4.61950000000E+08; -23.245       
   4.62000000000E+08; -24.0351      
   4.62050000000E+08; -24.7448      
   4.62100000000E+08; -24.7994      
   4.62150000000E+08; -24.3645      
   4.62200000000E+08; -23.347       
   4.62250000000E+08; -21.6241      
   4.62300000000E+08; -19.4854      
   4.62350000000E+08; -17.809       
   4.62400000000E+08; -16.3099      
   4.62450000000E+08; -15.2993      
   4.62500000000E+08; -14.7603      
   4.62550000000E+08; -15.19        
   4.62600000000E+08; -16.0205      
   4.62650000000E+08; -16.8134      
   4.62700000000E+08; -17.1567      
   4.62750000000E+08; -18.0102      
   4.62800000000E+08; -18.9952      
   4.62850000000E+08; -20.2457      
   4.62900000000E+08; -20.4624      
   4.62950000000E+08; -20.4149      
   4.63000000000E+08; -21.4574      
   4.63050000000E+08; -23.2034      
   4.63100000000E+08; -24.4859      
   4.63150000000E+08; -24.7981      
   4.63200000000E+08; -24.4934      
   4.63250000000E+08; -24.4594      
   4.63300000000E+08; -23.3112      
   4.63350000000E+08; -21.5655      
   4.63400000000E+08; -19.5261      
   4.63450000000E+08; -17.4993      
   4.63500000000E+08; -15.8689      
   4.63550000000E+08; -15.5812      
   4.63600000000E+08; -16.0637      
   4.63650000000E+08; -17.0324      
   4.63700000000E+08; -17.4712      
   4.63750000000E+08; -17.4283      
   4.63800000000E+08; -17.3564      
   4.63850000000E+08; -18.0676      
   4.63900000000E+08; -19.4219      
   4.63950000000E+08; -20.4566      
   4.64000000000E+08; -20.9122      
   4.64050000000E+08; -21.6934      
   4.64100000000E+08; -20.641       
   4.64150000000E+08; -19.8604      
   4.64200000000E+08; -19.1492      
   4.64250000000E+08; -18.6875      
   4.64300000000E+08; -18.8027      
   4.64350000000E+08; -18.9447      
   4.64400000000E+08; -19.3824      
   4.64450000000E+08; -20.4251      
   4.64500000000E+08; -21.3051      
   4.64550000000E+08; -22.0679      
   4.64600000000E+08; -21.9276      
   4.64650000000E+08; -21.8552      
   4.64700000000E+08; -23.0749      
   4.64750000000E+08; -21.8742      
   4.64800000000E+08; -19.9167      
   4.64850000000E+08; -18.6428      
   4.64900000000E+08; -17.9666      
   4.64950000000E+08; -17.6819      
   4.65000000000E+08; -17.8137      
   4.65050000000E+08; -17.9931      
   4.65100000000E+08; -17.6464      
   4.65150000000E+08; -18.0249      
   4.65200000000E+08; -18.6814      
   4.65250000000E+08; -18.4769      
   4.65300000000E+08; -19.1109      
   4.65350000000E+08; -20.4716      
   4.65400000000E+08; -21.7191      
   4.65450000000E+08; -22.2882      
   4.65500000000E+08; -21.911       
   4.65550000000E+08; -21.5631      
   4.65600000000E+08; -21.4093      
   4.65650000000E+08; -21.2886      
   4.65700000000E+08; -21.4481      
   4.65750000000E+08; -21.1115      
   4.65800000000E+08; -20.7196      
   4.65850000000E+08; -19.9146      
   4.65900000000E+08; -19.6079      
   4.65950000000E+08; -19.3992      
   4.66000000000E+08; -19.379       
   4.66050000000E+08; -19.5518      
   4.66100000000E+08; -20.0821      
   4.66150000000E+08; -20.4731      
   4.66200000000E+08; -21.9876      
   4.66250000000E+08; -20.5672      
   4.66300000000E+08; -20.0907      
   4.66350000000E+08; -20.988       
   4.66400000000E+08; -21.1607      
   4.66450000000E+08; -21.3402      
   4.66500000000E+08; -21.7046      
   4.66550000000E+08; -21.3089      
   4.66600000000E+08; -21.1147      
   4.66650000000E+08; -20.5697      
   4.66700000000E+08; -20.3203      
   4.66750000000E+08; -20.4354      
   4.66800000000E+08; -19.8239      
   4.66850000000E+08; -19.6553      
   4.66900000000E+08; -19.4382      
   4.66950000000E+08; -19.0492      
   4.67000000000E+08; -19.6465      
   4.67050000000E+08; -20.0828      
   4.67100000000E+08; -20.0701      
   4.67150000000E+08; -19.4568      
   4.67200000000E+08; -18.8726      
   4.67250000000E+08; -18.9437      
   4.67300000000E+08; -20.2396      
   4.67350000000E+08; -22.7547      
   4.67400000000E+08; -23.9251      
   4.67450000000E+08; -24.672       
   4.67500000000E+08; -24.1891      
   4.67550000000E+08; -23.0489      
   4.67600000000E+08; -22.5431      
   4.67650000000E+08; -22.3865      
   4.67700000000E+08; -22.2098      
   4.67750000000E+08; -22.6031      
   4.67800000000E+08; -22.8327      
   4.67850000000E+08; -22.7041      
   4.67900000000E+08; -21.8943      
   4.67950000000E+08; -21.2934      
   4.68000000000E+08; -21.4143      
   4.68050000000E+08; -21.8439      
   4.68100000000E+08; -22.0717      
   4.68150000000E+08; -22.5632      
   4.68200000000E+08; -22.2748      
   4.68250000000E+08; -21.8332      
   4.68300000000E+08; -21.1772      
   4.68350000000E+08; -20.4132      
   4.68400000000E+08; -20.1727      
   4.68450000000E+08; -21.4473      
   4.68500000000E+08; -23.3653      
   4.68550000000E+08; -24.7674      
   4.68600000000E+08; -25.4028      
   4.68650000000E+08; -25.7055      
   4.68700000000E+08; -25.072       
   4.68750000000E+08; -24.8953      
   4.68800000000E+08; -25.5808      
   4.68850000000E+08; -26.1858      
   4.68900000000E+08; -26.1571      
   4.68950000000E+08; -26.0595      
   4.69000000000E+08; -25.8083      
   4.69050000000E+08; -25.6045      
   4.69100000000E+08; -24.7676      
   4.69150000000E+08; -23.4933      
   4.69200000000E+08; -22.3295      
   4.69250000000E+08; -21.6188      
   4.69300000000E+08; -20.5138      
   4.69350000000E+08; -19.6772      
   4.69400000000E+08; -19.4943      
   4.69450000000E+08; -19.2792      
   4.69500000000E+08; -20.636       
   4.69550000000E+08; -22.2105      
   4.69600000000E+08; -24.2434      
   4.69650000000E+08; -26.3559      
   4.69700000000E+08; -26.6404      
   4.69750000000E+08; -27.4963      
   4.69800000000E+08; -28.5041      
   4.69850000000E+08; -29.4438      
   4.69900000000E+08; -28.3842      
   4.69950000000E+08; -26.6457      
   4.70000000000E+08; -24.8917      
   4.70050000000E+08; -23.6653      
   4.70100000000E+08; -23.315       
   4.70150000000E+08; -23.0175      
   4.70200000000E+08; -23.36        
   4.70250000000E+08; -23.4791      
   4.70300000000E+08; -22.712       
   4.70350000000E+08; -23.5791      
   4.70400000000E+08; -24.2425      
   4.70450000000E+08; -24.6607      
   4.70500000000E+08; -24.6333      
   4.70550000000E+08; -24.7827      
   4.70600000000E+08; -25.8734      
   4.70650000000E+08; -27.1968      
   4.70700000000E+08; -29.6226      
   4.70750000000E+08; -31.1948      
   4.70800000000E+08; -33.016       
   4.70850000000E+08; -32.3153      
   4.70900000000E+08; -30.2984      
   4.70950000000E+08; -28.3949      
   4.71000000000E+08; -27.9519      
   4.71050000000E+08; -27.2425      
   4.71100000000E+08; -27.376       
   4.71150000000E+08; -27.8511      
   4.71200000000E+08; -27.8259      
   4.71250000000E+08; -26.7858      
   4.71300000000E+08; -25.7791      
   4.71350000000E+08; -25.2003      
   4.71400000000E+08; -24.5263      
   4.71450000000E+08; -23.9841      
   4.71500000000E+08; -23.5756      
   4.71550000000E+08; -23.6013      
   4.71600000000E+08; -25.3591      
   4.71650000000E+08; -28.3284      
   4.71700000000E+08; -30.5254      
   4.71750000000E+08; -31.9013      
   4.71800000000E+08; -32.2751      
   4.71850000000E+08; -35.7835      
   4.71900000000E+08; -37.2779      
   4.71950000000E+08; -34.7254      
   4.72000000000E+08; -32.7785      
   4.72050000000E+08; -32.5663      
   4.72100000000E+08; -33.4485      
   4.72150000000E+08; -32.514       
   4.72200000000E+08; -31.8054      
   4.72250000000E+08; -30.5912      
   4.72300000000E+08; -29.4696      
   4.72350000000E+08; -28.5559      
   4.72400000000E+08; -27.8093      
   4.72450000000E+08; -28.1718      
   4.72500000000E+08; -28.299       
   4.72550000000E+08; -27.203       
   4.72600000000E+08; -26.9859      
   4.72650000000E+08; -26.9774      
   4.72700000000E+08; -28.0259      
   4.72750000000E+08; -29.195       
   4.72800000000E+08; -30.6466      
   4.72850000000E+08; -33.247       
   4.72900000000E+08; -32.7438      
   4.72950000000E+08; -33.2609      
   4.73000000000E+08; -32.5551      
   4.73050000000E+08; -33.0578      
   4.73100000000E+08; -33.513       
   4.73150000000E+08; -35.0124      
   4.73200000000E+08; -36.0531      
   4.73250000000E+08; -34.0508      
   4.73300000000E+08; -32.4021      
   4.73350000000E+08; -31.7572      
   4.73400000000E+08; -30.2908      
   4.73450000000E+08; -29.0977      
   4.73500000000E+08; -28.5308      
   4.73550000000E+08; -28.3957      
   4.73600000000E+08; -29.466       
   4.73650000000E+08; -31.0615      
   4.73700000000E+08; -31.5399      
   4.73750000000E+08; -31.4978      
   4.73800000000E+08; -32.1787      
   4.73850000000E+08; -34.0479      
   4.73900000000E+08; -34.6899      
   4.73950000000E+08; -34.2917      
   4.74000000000E+08; -37.1498      
   4.74050000000E+08; -39.4487      
   4.74100000000E+08; -40.7514      
   4.74150000000E+08; -47.4398      
   4.74200000000E+08; -44.4909      
   4.74250000000E+08; -44.0954      
   4.74300000000E+08; -42.6714      
   4.74350000000E+08; -48.1746      
   4.74400000000E+08; -49.7665      
   4.74450000000E+08; -47.1224      
   4.74500000000E+08; -46.5657      
   4.74550000000E+08; -44.472       
   4.74600000000E+08; -41.417       
   4.74650000000E+08; -38.8699      
   4.74700000000E+08; -37.1071      
   4.74750000000E+08; -34.6902      
   4.74800000000E+08; -34.8835      
   4.74850000000E+08; -34.059       
   4.74900000000E+08; -35.8872      
   4.74950000000E+08; -36.4422      
   4.75000000000E+08; -37.4631      
   4.75050000000E+08; -36.7613      
   4.75100000000E+08; -40.7364      
   4.75150000000E+08; -44.6554      
   4.75200000000E+08; -48.6725      
   4.75250000000E+08; -54.2109      
   4.75300000000E+08; -41.2387      
   4.75350000000E+08; -39.4547      
   4.75400000000E+08; -42.2515      
   4.75450000000E+08; -41.1054      
   4.75500000000E+08; -40.1976      
   4.75550000000E+08; -38.7736      
   4.75600000000E+08; -40.8095      
   4.75650000000E+08; -46.5625      
   4.75700000000E+08; -45.2867      
   4.75750000000E+08; -41.8049      
   4.75800000000E+08; -40.3967      
   4.75850000000E+08; -39.6117      
   4.75900000000E+08; -40.088       
   4.75950000000E+08; -40.629       
   4.76000000000E+08; -41.6515      
   4.76050000000E+08; -41.7074      
   4.76100000000E+08; -43.3103      
   4.76150000000E+08; -43.9402      
   4.76200000000E+08; -45.724       
   4.76250000000E+08; -42.5619      
   4.76300000000E+08; -40.1284      
   4.76350000000E+08; -41.9891      
   4.76400000000E+08; -41.5499      
   4.76450000000E+08; -41.3478      
   4.76500000000E+08; -41.9493      
   4.76550000000E+08; -39.808       
   4.76600000000E+08; -38.179       
   4.76650000000E+08; -37.6099      
   4.76700000000E+08; -38.0807      
   4.76750000000E+08; -36.8888      
   4.76800000000E+08; -37.3152      
   4.76850000000E+08; -37.1181      
   4.76900000000E+08; -40.5763      
   4.76950000000E+08; -40.5373      
   4.77000000000E+08; -40.655       
   4.77050000000E+08; -39.5969      
   4.77100000000E+08; -37.7619      
   4.77150000000E+08; -41.8861      
   4.77200000000E+08; -37.702       
   4.77250000000E+08; -38.4403      
   4.77300000000E+08; -39.0587      
   4.77350000000E+08; -38.9346      
   4.77400000000E+08; -38.288       
   4.77450000000E+08; -36.4406      
   4.77500000000E+08; -34.9636      
   4.77550000000E+08; -35.1785      
   4.77600000000E+08; -36.2054      
   4.77650000000E+08; -37.4446      
   4.77700000000E+08; -36.3768      
   4.77750000000E+08; -36.3392      
   4.77800000000E+08; -35.6251      
   4.77850000000E+08; -36.2048      
   4.77900000000E+08; -36.2684      
   4.77950000000E+08; -37.2213      
   4.78000000000E+08; -38.0996      
   4.78050000000E+08; -37.1936      
   4.78100000000E+08; -35.1045      
   4.78150000000E+08; -34.92        
   4.78200000000E+08; -35.3608      
   4.78250000000E+08; -35.7489      
   4.78300000000E+08; -36.2596      
   4.78350000000E+08; -35.5315      
   4.78400000000E+08; -33.5604      
   4.78450000000E+08; -34.5344      
   4.78500000000E+08; -34.4517      
   4.78550000000E+08; -34.1175      
   4.78600000000E+08; -32.4001      
   4.78650000000E+08; -31.4327      
   4.78700000000E+08; -30.8636      
   4.78750000000E+08; -31.4727      
   4.78800000000E+08; -33.7549      
   4.78850000000E+08; -39.7114      
   4.78900000000E+08; -38.3756      
   4.78950000000E+08; -40.4539      
   4.79000000000E+08; -45.8293      
   4.79050000000E+08; -46.3837      
   4.79100000000E+08; -42.5669      
   4.79150000000E+08; -47.3816      
   4.79200000000E+08; -55.9698      
   4.79250000000E+08; -48.6265      
   4.79300000000E+08; -47.1236      
   4.79350000000E+08; -43.9997      
   4.79400000000E+08; -45.5496      
   4.79450000000E+08; -41.9415      
   4.79500000000E+08; -38.3924      
   4.79550000000E+08; -38.4126      
   4.79600000000E+08; -37.4111      
   4.79650000000E+08; -36.9128      
   4.79700000000E+08; -37.7755      
   4.79750000000E+08; -37.7855      
   4.79800000000E+08; -38.703       
   4.79850000000E+08; -37.1563      
   4.79900000000E+08; -36.939       
   4.79950000000E+08; -37.5426      
   4.80000000000E+08; -36.2664      
