
  ZVRE, 2.05

  stimulus-start        ; stimulus-stop       ; stimulus-unit       ; nof-points; parameter-type; impedance-ohm
  4.00000000000E+08     ; 4.80000000000E+08   ; Hz                  ; 1601      ; S21           ; 50        

  conversion            ; time-domain         ; data-format         ; param-unit; smoothing     ; trace-math
  S                     ; none                ; MAGNITUDE           ; dB        ; none          ; none

  sweep-mode-type       ; notlinear-meas-mode 
  FUNDAMENTAL           ; none                


  freq              ;  S21          
   4.00000000000E+08; -38.6924      
   4.00050000000E+08; -38.3289      
   4.00100000000E+08; -37.5038      
   4.00150000000E+08; -37.1639      
   4.00200000000E+08; -37.3995      
   4.00250000000E+08; -36.1124      
   4.00300000000E+08; -35.9587      
   4.00350000000E+08; -35.8524      
   4.00400000000E+08; -36.7037      
   4.00450000000E+08; -36.8142      
   4.00500000000E+08; -36.8563      
   4.00550000000E+08; -36.9418      
   4.00600000000E+08; -35.7523      
   4.00650000000E+08; -37.5733      
   4.00700000000E+08; -43.3178      
   4.00750000000E+08; -39.9545      
   4.00800000000E+08; -38.792       
   4.00850000000E+08; -38.5445      
   4.00900000000E+08; -38.6156      
   4.00950000000E+08; -39.6517      
   4.01000000000E+08; -40.302       
   4.01050000000E+08; -38.6213      
   4.01100000000E+08; -39.0394      
   4.01150000000E+08; -39.7977      
   4.01200000000E+08; -38.1167      
   4.01250000000E+08; -39.2485      
   4.01300000000E+08; -40.295       
   4.01350000000E+08; -36.0995      
   4.01400000000E+08; -35.4527      
   4.01450000000E+08; -34.0578      
   4.01500000000E+08; -41.1717      
   4.01550000000E+08; -46.7244      
   4.01600000000E+08; -43.4259      
   4.01650000000E+08; -38.8925      
   4.01700000000E+08; -34.5016      
   4.01750000000E+08; -31.7351      
   4.01800000000E+08; -31.5698      
   4.01850000000E+08; -33.0614      
   4.01900000000E+08; -33.318       
   4.01950000000E+08; -34.0851      
   4.02000000000E+08; -33.6873      
   4.02050000000E+08; -34.0934      
   4.02100000000E+08; -37.9766      
   4.02150000000E+08; -36.271       
   4.02200000000E+08; -35.496       
   4.02250000000E+08; -33.0276      
   4.02300000000E+08; -32.2592      
   4.02350000000E+08; -31.3163      
   4.02400000000E+08; -31.3563      
   4.02450000000E+08; -33.9273      
   4.02500000000E+08; -32.7334      
   4.02550000000E+08; -32.1115      
   4.02600000000E+08; -33.1645      
   4.02650000000E+08; -34.3162      
   4.02700000000E+08; -34.3768      
   4.02750000000E+08; -32.0294      
   4.02800000000E+08; -32.3081      
   4.02850000000E+08; -32.6144      
   4.02900000000E+08; -32.608       
   4.02950000000E+08; -33.4012      
   4.03000000000E+08; -33.4327      
   4.03050000000E+08; -33.4561      
   4.03100000000E+08; -34.5306      
   4.03150000000E+08; -36.057       
   4.03200000000E+08; -35.4449      
   4.03250000000E+08; -35.95        
   4.03300000000E+08; -35.1854      
   4.03350000000E+08; -36.4278      
   4.03400000000E+08; -35.3022      
   4.03450000000E+08; -33.7191      
   4.03500000000E+08; -34.8527      
   4.03550000000E+08; -35.3879      
   4.03600000000E+08; -35.0901      
   4.03650000000E+08; -35.7302      
   4.03700000000E+08; -34.8629      
   4.03750000000E+08; -35.5935      
   4.03800000000E+08; -37.5993      
   4.03850000000E+08; -35.4389      
   4.03900000000E+08; -35.306       
   4.03950000000E+08; -35.9252      
   4.04000000000E+08; -35.455       
   4.04050000000E+08; -35.7317      
   4.04100000000E+08; -36.7689      
   4.04150000000E+08; -35.5765      
   4.04200000000E+08; -35.1293      
   4.04250000000E+08; -35.4638      
   4.04300000000E+08; -35.3222      
   4.04350000000E+08; -34.4378      
   4.04400000000E+08; -36.3935      
   4.04450000000E+08; -35.6874      
   4.04500000000E+08; -35.5273      
   4.04550000000E+08; -37.5809      
   4.04600000000E+08; -35.1555      
   4.04650000000E+08; -34.0889      
   4.04700000000E+08; -32.9191      
   4.04750000000E+08; -35.1517      
   4.04800000000E+08; -38.6977      
   4.04850000000E+08; -37.0385      
   4.04900000000E+08; -33.9328      
   4.04950000000E+08; -37.5461      
   4.05000000000E+08; -38.6608      
   4.05050000000E+08; -36.3718      
   4.05100000000E+08; -34.8718      
   4.05150000000E+08; -34.9905      
   4.05200000000E+08; -35.018       
   4.05250000000E+08; -35.9862      
   4.05300000000E+08; -39.6923      
   4.05350000000E+08; -38.7976      
   4.05400000000E+08; -36.8087      
   4.05450000000E+08; -32.7899      
   4.05500000000E+08; -35.9698      
   4.05550000000E+08; -39.1999      
   4.05600000000E+08; -37.691       
   4.05650000000E+08; -36.7351      
   4.05700000000E+08; -37.4702      
   4.05750000000E+08; -37.1481      
   4.05800000000E+08; -37.9095      
   4.05850000000E+08; -37.289       
   4.05900000000E+08; -36.2304      
   4.05950000000E+08; -37.0223      
   4.06000000000E+08; -37.778       
   4.06050000000E+08; -41.5822      
   4.06100000000E+08; -36.8901      
   4.06150000000E+08; -35.7093      
   4.06200000000E+08; -36.0359      
   4.06250000000E+08; -37.4469      
   4.06300000000E+08; -36.9128      
   4.06350000000E+08; -37.7458      
   4.06400000000E+08; -36.9225      
   4.06450000000E+08; -37.3627      
   4.06500000000E+08; -36.787       
   4.06550000000E+08; -36.4101      
   4.06600000000E+08; -36.1825      
   4.06650000000E+08; -36.5301      
   4.06700000000E+08; -36.0843      
   4.06750000000E+08; -36.4979      
   4.06800000000E+08; -36.9451      
   4.06850000000E+08; -37.312       
   4.06900000000E+08; -36.0237      
   4.06950000000E+08; -36.2704      
   4.07000000000E+08; -36.3545      
   4.07050000000E+08; -36.8332      
   4.07100000000E+08; -36.6838      
   4.07150000000E+08; -37.1617      
   4.07200000000E+08; -37.0265      
   4.07250000000E+08; -37.55        
   4.07300000000E+08; -37.3984      
   4.07350000000E+08; -36.8122      
   4.07400000000E+08; -35.973       
   4.07450000000E+08; -36.2675      
   4.07500000000E+08; -37.5555      
   4.07550000000E+08; -37.3071      
   4.07600000000E+08; -37.9603      
   4.07650000000E+08; -37.2491      
   4.07700000000E+08; -38.4538      
   4.07750000000E+08; -38.2838      
   4.07800000000E+08; -39.1903      
   4.07850000000E+08; -37.8425      
   4.07900000000E+08; -38.99        
   4.07950000000E+08; -38.5933      
   4.08000000000E+08; -39.0405      
   4.08050000000E+08; -39.7561      
   4.08100000000E+08; -39.592       
   4.08150000000E+08; -38.9446      
   4.08200000000E+08; -38.8466      
   4.08250000000E+08; -37.4663      
   4.08300000000E+08; -37.6487      
   4.08350000000E+08; -38.0163      
   4.08400000000E+08; -38.8886      
   4.08450000000E+08; -38.166       
   4.08500000000E+08; -38.8646      
   4.08550000000E+08; -37.9649      
   4.08600000000E+08; -37.1769      
   4.08650000000E+08; -37.8458      
   4.08700000000E+08; -36.8823      
   4.08750000000E+08; -36.6484      
   4.08800000000E+08; -35.6421      
   4.08850000000E+08; -35.8243      
   4.08900000000E+08; -35.9111      
   4.08950000000E+08; -34.5827      
   4.09000000000E+08; -36.3738      
   4.09050000000E+08; -35.9571      
   4.09100000000E+08; -35.8691      
   4.09150000000E+08; -36.1498      
   4.09200000000E+08; -35.9145      
   4.09250000000E+08; -36.0211      
   4.09300000000E+08; -36.337       
   4.09350000000E+08; -35.6145      
   4.09400000000E+08; -34.8973      
   4.09450000000E+08; -34.9779      
   4.09500000000E+08; -34.6425      
   4.09550000000E+08; -34.6562      
   4.09600000000E+08; -34.8342      
   4.09650000000E+08; -34.7817      
   4.09700000000E+08; -35.0843      
   4.09750000000E+08; -36.5127      
   4.09800000000E+08; -35.5861      
   4.09850000000E+08; -35.8175      
   4.09900000000E+08; -35.7909      
   4.09950000000E+08; -36.5327      
   4.10000000000E+08; -36.7203      
   4.10050000000E+08; -37.4392      
   4.10100000000E+08; -36.9953      
   4.10150000000E+08; -37.1961      
   4.10200000000E+08; -36.8036      
   4.10250000000E+08; -37.3227      
   4.10300000000E+08; -36.1853      
   4.10350000000E+08; -35.6195      
   4.10400000000E+08; -35.7911      
   4.10450000000E+08; -35.9996      
   4.10500000000E+08; -35.9533      
   4.10550000000E+08; -35.9609      
   4.10600000000E+08; -36.1003      
   4.10650000000E+08; -36.0392      
   4.10700000000E+08; -36.4217      
   4.10750000000E+08; -35.7982      
   4.10800000000E+08; -34.7794      
   4.10850000000E+08; -35.1828      
   4.10900000000E+08; -34.5981      
   4.10950000000E+08; -34.739       
   4.11000000000E+08; -34.3061      
   4.11050000000E+08; -34.6963      
   4.11100000000E+08; -35.1808      
   4.11150000000E+08; -34.5277      
   4.11200000000E+08; -35.4406      
   4.11250000000E+08; -35.9532      
   4.11300000000E+08; -35.0064      
   4.11350000000E+08; -34.2384      
   4.11400000000E+08; -34.1365      
   4.11450000000E+08; -33.8953      
   4.11500000000E+08; -34.3368      
   4.11550000000E+08; -34.0286      
   4.11600000000E+08; -33.0433      
   4.11650000000E+08; -33.8046      
   4.11700000000E+08; -32.9218      
   4.11750000000E+08; -33.9444      
   4.11800000000E+08; -33.7727      
   4.11850000000E+08; -33.2094      
   4.11900000000E+08; -32.5961      
   4.11950000000E+08; -33.106       
   4.12000000000E+08; -32.6884      
   4.12050000000E+08; -33.1024      
   4.12100000000E+08; -32.6586      
   4.12150000000E+08; -33.5721      
   4.12200000000E+08; -33.5159      
   4.12250000000E+08; -33.8886      
   4.12300000000E+08; -34.7109      
   4.12350000000E+08; -33.9702      
   4.12400000000E+08; -33.8747      
   4.12450000000E+08; -34.464       
   4.12500000000E+08; -32.9753      
   4.12550000000E+08; -35.0629      
   4.12600000000E+08; -35.06        
   4.12650000000E+08; -34.8432      
   4.12700000000E+08; -34.5503      
   4.12750000000E+08; -35.5661      
   4.12800000000E+08; -35.7419      
   4.12850000000E+08; -35.4322      
   4.12900000000E+08; -35.0645      
   4.12950000000E+08; -34.8871      
   4.13000000000E+08; -33.6458      
   4.13050000000E+08; -33.2911      
   4.13100000000E+08; -33.5195      
   4.13150000000E+08; -32.5872      
   4.13200000000E+08; -32.488       
   4.13250000000E+08; -32.8218      
   4.13300000000E+08; -34.0469      
   4.13350000000E+08; -33.1155      
   4.13400000000E+08; -32.7951      
   4.13450000000E+08; -31.8998      
   4.13500000000E+08; -32.2446      
   4.13550000000E+08; -32.9345      
   4.13600000000E+08; -32.698       
   4.13650000000E+08; -32.3332      
   4.13700000000E+08; -31.0297      
   4.13750000000E+08; -30.3228      
   4.13800000000E+08; -30.3255      
   4.13850000000E+08; -30.3977      
   4.13900000000E+08; -30.075       
   4.13950000000E+08; -30.3079      
   4.14000000000E+08; -29.9677      
   4.14050000000E+08; -30.6132      
   4.14100000000E+08; -30.522       
   4.14150000000E+08; -30.1052      
   4.14200000000E+08; -29.6024      
   4.14250000000E+08; -28.975       
   4.14300000000E+08; -27.4657      
   4.14350000000E+08; -27.1473      
   4.14400000000E+08; -26.9966      
   4.14450000000E+08; -26.6042      
   4.14500000000E+08; -26.6646      
   4.14550000000E+08; -26.4144      
   4.14600000000E+08; -26.428       
   4.14650000000E+08; -27.2422      
   4.14700000000E+08; -27.1365      
   4.14750000000E+08; -26.1503      
   4.14800000000E+08; -24.8439      
   4.14850000000E+08; -22.9677      
   4.14900000000E+08; -21.4482      
   4.14950000000E+08; -19.4191      
   4.15000000000E+08; -17.5655      
   4.15050000000E+08; -16.4401      
   4.15100000000E+08; -16.6043      
   4.15150000000E+08; -15.827       
   4.15200000000E+08; -16.4423      
   4.15250000000E+08; -16.7738      
   4.15300000000E+08; -16.7198      
   4.15350000000E+08; -18.643       
   4.15400000000E+08; -21.586       
   4.15450000000E+08; -22.1068      
   4.15500000000E+08; -20.1128      
   4.15550000000E+08; -17.8104      
   4.15600000000E+08; -17.1085      
   4.15650000000E+08; -17.8267      
   4.15700000000E+08; -19.1191      
   4.15750000000E+08; -22.0703      
   4.15800000000E+08; -21.8088      
   4.15850000000E+08; -20.7424      
   4.15900000000E+08; -22.6185      
   4.15950000000E+08; -24.7519      
   4.16000000000E+08; -26.9422      
   4.16050000000E+08; -28.4047      
   4.16100000000E+08; -30.0331      
   4.16150000000E+08; -32.0248      
   4.16200000000E+08; -34.7883      
   4.16250000000E+08; -37.3317      
   4.16300000000E+08; -39.3047      
   4.16350000000E+08; -41.6379      
   4.16400000000E+08; -36.9211      
   4.16450000000E+08; -33.2478      
   4.16500000000E+08; -34.1079      
   4.16550000000E+08; -39.3933      
   4.16600000000E+08; -40.2864      
   4.16650000000E+08; -36.1426      
   4.16700000000E+08; -35.7723      
   4.16750000000E+08; -35.0236      
   4.16800000000E+08; -33.4235      
   4.16850000000E+08; -31.8905      
   4.16900000000E+08; -31.9567      
   4.16950000000E+08; -32.5136      
   4.17000000000E+08; -30.7427      
   4.17050000000E+08; -29.7232      
   4.17100000000E+08; -27.9033      
   4.17150000000E+08; -26.9386      
   4.17200000000E+08; -25.6459      
   4.17250000000E+08; -25.5386      
   4.17300000000E+08; -24.7405      
   4.17350000000E+08; -23.3347      
   4.17400000000E+08; -21.3833      
   4.17450000000E+08; -19.3403      
   4.17500000000E+08; -18.0059      
   4.17550000000E+08; -15.8117      
   4.17600000000E+08; -13.455       
   4.17650000000E+08; -11.3578      
   4.17700000000E+08; -10.2223      
   4.17750000000E+08; -9.94172      
   4.17800000000E+08; -8.63268      
   4.17850000000E+08; -7.52777      
   4.17900000000E+08; -7.32612      
   4.17950000000E+08; -6.95554      
   4.18000000000E+08; -6.36965      
   4.18050000000E+08; -6.0378       
   4.18100000000E+08; -4.82612      
   4.18150000000E+08; -2.37848      
   4.18200000000E+08; -0.116375     
   4.18250000000E+08;  1.00686      
   4.18300000000E+08;  0.94135      
   4.18350000000E+08; -0.205568     
   4.18400000000E+08; -2.09829      
   4.18450000000E+08; -4.05594      
   4.18500000000E+08; -6.02814      
   4.18550000000E+08; -7.17166      
   4.18600000000E+08; -8.08029      
   4.18650000000E+08; -8.95092      
   4.18700000000E+08; -9.95795      
   4.18750000000E+08; -11.6531      
   4.18800000000E+08; -12.0566      
   4.18850000000E+08; -11.7783      
   4.18900000000E+08; -11.7711      
   4.18950000000E+08; -12.1013      
   4.19000000000E+08; -12.8761      
   4.19050000000E+08; -14.5393      
   4.19100000000E+08; -16.4752      
   4.19150000000E+08; -18.342       
   4.19200000000E+08; -20.5583      
   4.19250000000E+08; -21.5376      
   4.19300000000E+08; -23.4122      
   4.19350000000E+08; -25.5716      
   4.19400000000E+08; -27.2099      
   4.19450000000E+08; -28.7302      
   4.19500000000E+08; -30.8066      
   4.19550000000E+08; -31.5468      
   4.19600000000E+08; -30.2314      
   4.19650000000E+08; -27.5994      
   4.19700000000E+08; -25.8602      
   4.19750000000E+08; -25.0389      
   4.19800000000E+08; -26.2736      
   4.19850000000E+08; -27.6064      
   4.19900000000E+08; -23.7101      
   4.19950000000E+08; -20.9607      
   4.20000000000E+08; -19.7747      
   4.20050000000E+08; -16.6188      
   4.20100000000E+08; -13.4602      
   4.20150000000E+08; -10.3254      
   4.20200000000E+08; -7.378        
   4.20250000000E+08; -4.66787      
   4.20300000000E+08; -3.55566      
   4.20350000000E+08; -2.00184      
   4.20400000000E+08;  1.856        
   4.20450000000E+08;  3.77437      
   4.20500000000E+08;  3.61258      
   4.20550000000E+08;  3.19563      
   4.20600000000E+08;  2.93307      
   4.20650000000E+08;  3.88155      
   4.20700000000E+08;  4.79162      
   4.20750000000E+08;  5.06523      
   4.20800000000E+08;  4.17477      
   4.20850000000E+08;  1.67199      
   4.20900000000E+08; -2.32946      
   4.20950000000E+08; -6.51363      
   4.21000000000E+08; -9.80601      
   4.21050000000E+08; -13.1553      
   4.21100000000E+08; -16.3848      
   4.21150000000E+08; -19.7996      
   4.21200000000E+08; -25.0785      
   4.21250000000E+08; -31.641       
   4.21300000000E+08; -34.4184      
   4.21350000000E+08; -29.3363      
   4.21400000000E+08; -25.5072      
   4.21450000000E+08; -21.7492      
   4.21500000000E+08; -18.1278      
   4.21550000000E+08; -14.9559      
   4.21600000000E+08; -12.207       
   4.21650000000E+08; -9.39888      
   4.21700000000E+08; -6.84505      
   4.21750000000E+08; -4.6652       
   4.21800000000E+08; -2.79035      
   4.21850000000E+08; -0.988992     
   4.21900000000E+08;  0.779173     
   4.21950000000E+08;  2.46643      
   4.22000000000E+08;  4.14527      
   4.22050000000E+08;  5.7158       
   4.22100000000E+08;  7.23747      
   4.22150000000E+08;  8.67444      
   4.22200000000E+08;  9.99064      
   4.22250000000E+08;  11.1722      
   4.22300000000E+08;  12.2116      
   4.22350000000E+08;  13.1305      
   4.22400000000E+08;  13.9517      
   4.22450000000E+08;  14.6891      
   4.22500000000E+08;  15.3568      
   4.22550000000E+08;  15.9377      
   4.22600000000E+08;  16.4388      
   4.22650000000E+08;  16.8804      
   4.22700000000E+08;  17.2356      
   4.22750000000E+08;  17.5314      
   4.22800000000E+08;  17.7824      
   4.22850000000E+08;  18.0114      
   4.22900000000E+08;  18.2105      
   4.22950000000E+08;  18.3661      
   4.23000000000E+08;  18.4807      
   4.23050000000E+08;  18.5777      
   4.23100000000E+08;  18.6732      
   4.23150000000E+08;  18.757       
   4.23200000000E+08;  18.81        
   4.23250000000E+08;  18.9018      
   4.23300000000E+08;  19.0161      
   4.23350000000E+08;  19.0899      
   4.23400000000E+08;  19.1296      
   4.23450000000E+08;  19.1485      
   4.23500000000E+08;  19.181       
   4.23550000000E+08;  19.2243      
   4.23600000000E+08;  19.2646      
   4.23650000000E+08;  19.3058      
   4.23700000000E+08;  19.3459      
   4.23750000000E+08;  19.3763      
   4.23800000000E+08;  19.4124      
   4.23850000000E+08;  19.4346      
   4.23900000000E+08;  19.451       
   4.23950000000E+08;  19.4378      
   4.24000000000E+08;  19.4116      
   4.24050000000E+08;  19.3946      
   4.24100000000E+08;  19.378       
   4.24150000000E+08;  19.3737      
   4.24200000000E+08;  19.3644      
   4.24250000000E+08;  19.3683      
   4.24300000000E+08;  19.3946      
   4.24350000000E+08;  19.4269      
   4.24400000000E+08;  19.4481      
   4.24450000000E+08;  19.457       
   4.24500000000E+08;  19.4865      
   4.24550000000E+08;  19.5239      
   4.24600000000E+08;  19.5566      
   4.24650000000E+08;  19.5767      
   4.24700000000E+08;  19.5988      
   4.24750000000E+08;  19.618       
   4.24800000000E+08;  19.6372      
   4.24850000000E+08;  19.6645      
   4.24900000000E+08;  19.6942      
   4.24950000000E+08;  19.733       
   4.25000000000E+08;  19.7684      
   4.25050000000E+08;  19.7969      
   4.25100000000E+08;  19.8283      
   4.25150000000E+08;  19.846       
   4.25200000000E+08;  19.8734      
   4.25250000000E+08;  19.8958      
   4.25300000000E+08;  19.9148      
   4.25350000000E+08;  19.938       
   4.25400000000E+08;  19.9601      
   4.25450000000E+08;  19.9578      
   4.25500000000E+08;  19.968       
   4.25550000000E+08;  19.9925      
   4.25600000000E+08;  20.025       
   4.25650000000E+08;  20.0553      
   4.25700000000E+08;  20.0785      
   4.25750000000E+08;  20.1047      
   4.25800000000E+08;  20.1362      
   4.25850000000E+08;  20.1503      
   4.25900000000E+08;  20.1688      
   4.25950000000E+08;  20.1811      
   4.26000000000E+08;  20.1956      
   4.26050000000E+08;  20.2082      
   4.26100000000E+08;  20.2069      
   4.26150000000E+08;  20.2045      
   4.26200000000E+08;  20.2003      
   4.26250000000E+08;  20.2048      
   4.26300000000E+08;  20.2124      
   4.26350000000E+08;  20.2104      
   4.26400000000E+08;  20.2003      
   4.26450000000E+08;  20.1907      
   4.26500000000E+08;  20.1791      
   4.26550000000E+08;  20.1766      
   4.26600000000E+08;  20.1811      
   4.26650000000E+08;  20.2074      
   4.26700000000E+08;  20.2351      
   4.26750000000E+08;  20.2285      
   4.26800000000E+08;  20.2201      
   4.26850000000E+08;  20.2196      
   4.26900000000E+08;  20.2318      
   4.26950000000E+08;  20.2296      
   4.27000000000E+08;  20.2088      
   4.27050000000E+08;  20.1861      
   4.27100000000E+08;  20.1697      
   4.27150000000E+08;  20.1474      
   4.27200000000E+08;  20.1429      
   4.27250000000E+08;  20.1373      
   4.27300000000E+08;  20.1266      
   4.27350000000E+08;  20.1183      
   4.27400000000E+08;  20.1066      
   4.27450000000E+08;  20.0988      
   4.27500000000E+08;  20.0773      
   4.27550000000E+08;  20.0383      
   4.27600000000E+08;  20.0047      
   4.27650000000E+08;  19.9828      
   4.27700000000E+08;  19.9668      
   4.27750000000E+08;  19.9504      
   4.27800000000E+08;  19.9354      
   4.27850000000E+08;  19.9326      
   4.27900000000E+08;  19.9258      
   4.27950000000E+08;  19.9162      
   4.28000000000E+08;  19.8961      
   4.28050000000E+08;  19.857       
   4.28100000000E+08;  19.8444      
   4.28150000000E+08;  19.8324      
   4.28200000000E+08;  19.825       
   4.28250000000E+08;  19.8233      
   4.28300000000E+08;  19.804       
   4.28350000000E+08;  19.7889      
   4.28400000000E+08;  19.7646      
   4.28450000000E+08;  19.7556      
   4.28500000000E+08;  19.7555      
   4.28550000000E+08;  19.77        
   4.28600000000E+08;  19.7891      
   4.28650000000E+08;  19.8109      
   4.28700000000E+08;  19.8148      
   4.28750000000E+08;  19.8112      
   4.28800000000E+08;  19.808       
   4.28850000000E+08;  19.8043      
   4.28900000000E+08;  19.8128      
   4.28950000000E+08;  19.8187      
   4.29000000000E+08;  19.8347      
   4.29050000000E+08;  19.827       
   4.29100000000E+08;  19.8031      
   4.29150000000E+08;  19.7842      
   4.29200000000E+08;  19.755       
   4.29250000000E+08;  19.7275      
   4.29300000000E+08;  19.7024      
   4.29350000000E+08;  19.6621      
   4.29400000000E+08;  19.6381      
   4.29450000000E+08;  19.6399      
   4.29500000000E+08;  19.6839      
   4.29550000000E+08;  19.727       
   4.29600000000E+08;  19.7772      
   4.29650000000E+08;  19.826       
   4.29700000000E+08;  19.8551      
   4.29750000000E+08;  19.8875      
   4.29800000000E+08;  19.9118      
   4.29850000000E+08;  19.9301      
   4.29900000000E+08;  19.9586      
   4.29950000000E+08;  19.9739      
   4.30000000000E+08;  19.9899      
   4.30050000000E+08;  20.03        
   4.30100000000E+08;  20.0633      
   4.30150000000E+08;  20.0804      
   4.30200000000E+08;  20.0857      
   4.30250000000E+08;  20.0937      
   4.30300000000E+08;  20.1031      
   4.30350000000E+08;  20.1175      
   4.30400000000E+08;  20.1443      
   4.30450000000E+08;  20.174       
   4.30500000000E+08;  20.2007      
   4.30550000000E+08;  20.2288      
   4.30600000000E+08;  20.2652      
   4.30650000000E+08;  20.2927      
   4.30700000000E+08;  20.3137      
   4.30750000000E+08;  20.3246      
   4.30800000000E+08;  20.326       
   4.30850000000E+08;  20.327       
   4.30900000000E+08;  20.3304      
   4.30950000000E+08;  20.3196      
   4.31000000000E+08;  20.2828      
   4.31050000000E+08;  20.2343      
   4.31100000000E+08;  20.2006      
   4.31150000000E+08;  20.2232      
   4.31200000000E+08;  20.2929      
   4.31250000000E+08;  20.3638      
   4.31300000000E+08;  20.4119      
   4.31350000000E+08;  20.4388      
   4.31400000000E+08;  20.4663      
   4.31450000000E+08;  20.4854      
   4.31500000000E+08;  20.5013      
   4.31550000000E+08;  20.5103      
   4.31600000000E+08;  20.5236      
   4.31650000000E+08;  20.5398      
   4.31700000000E+08;  20.5591      
   4.31750000000E+08;  20.582       
   4.31800000000E+08;  20.605       
   4.31850000000E+08;  20.6202      
   4.31900000000E+08;  20.6244      
   4.31950000000E+08;  20.6145      
   4.32000000000E+08;  20.6074      
   4.32050000000E+08;  20.5963      
   4.32100000000E+08;  20.5881      
   4.32150000000E+08;  20.5907      
   4.32200000000E+08;  20.6155      
   4.32250000000E+08;  20.6538      
   4.32300000000E+08;  20.6799      
   4.32350000000E+08;  20.6844      
   4.32400000000E+08;  20.6811      
   4.32450000000E+08;  20.6835      
   4.32500000000E+08;  20.6782      
   4.32550000000E+08;  20.6535      
   4.32600000000E+08;  20.6152      
   4.32650000000E+08;  20.5861      
   4.32700000000E+08;  20.5532      
   4.32750000000E+08;  20.5467      
   4.32800000000E+08;  20.5472      
   4.32850000000E+08;  20.5204      
   4.32900000000E+08;  20.5042      
   4.32950000000E+08;  20.4856      
   4.33000000000E+08;  20.4692      
   4.33050000000E+08;  20.4508      
   4.33100000000E+08;  20.4282      
   4.33150000000E+08;  20.4024      
   4.33200000000E+08;  20.383       
   4.33250000000E+08;  20.358       
   4.33300000000E+08;  20.3372      
   4.33350000000E+08;  20.3148      
   4.33400000000E+08;  20.2958      
   4.33450000000E+08;  20.2714      
   4.33500000000E+08;  20.2513      
   4.33550000000E+08;  20.2376      
   4.33600000000E+08;  20.2178      
   4.33650000000E+08;  20.1955      
   4.33700000000E+08;  20.184       
   4.33750000000E+08;  20.1513      
   4.33800000000E+08;  20.1323      
   4.33850000000E+08;  20.086       
   4.33900000000E+08;  20.0271      
   4.33950000000E+08;  19.9736      
   4.34000000000E+08;  19.907       
   4.34050000000E+08;  19.8566      
   4.34100000000E+08;  19.807       
   4.34150000000E+08;  19.7391      
   4.34200000000E+08;  19.6606      
   4.34250000000E+08;  19.5836      
   4.34300000000E+08;  19.5457      
   4.34350000000E+08;  19.5469      
   4.34400000000E+08;  19.5739      
   4.34450000000E+08;  19.59        
   4.34500000000E+08;  19.603       
   4.34550000000E+08;  19.605       
   4.34600000000E+08;  19.603       
   4.34650000000E+08;  19.611       
   4.34700000000E+08;  19.6156      
   4.34750000000E+08;  19.618       
   4.34800000000E+08;  19.613       
   4.34850000000E+08;  19.592       
   4.34900000000E+08;  19.5812      
   4.34950000000E+08;  19.5752      
   4.35000000000E+08;  19.5502      
   4.35050000000E+08;  19.516       
   4.35100000000E+08;  19.463       
   4.35150000000E+08;  19.4122      
   4.35200000000E+08;  19.3953      
   4.35250000000E+08;  19.3794      
   4.35300000000E+08;  19.372       
   4.35350000000E+08;  19.3549      
   4.35400000000E+08;  19.3215      
   4.35450000000E+08;  19.2866      
   4.35500000000E+08;  19.2589      
   4.35550000000E+08;  19.2372      
   4.35600000000E+08;  19.2234      
   4.35650000000E+08;  19.1907      
   4.35700000000E+08;  19.1539      
   4.35750000000E+08;  19.0858      
   4.35800000000E+08;  19.0314      
   4.35850000000E+08;  18.9835      
   4.35900000000E+08;  18.9152      
   4.35950000000E+08;  18.878       
   4.36000000000E+08;  18.8946      
   4.36050000000E+08;  18.9396      
   4.36100000000E+08;  18.9754      
   4.36150000000E+08;  18.9778      
   4.36200000000E+08;  18.9808      
   4.36250000000E+08;  18.9616      
   4.36300000000E+08;  18.9319      
   4.36350000000E+08;  18.9211      
   4.36400000000E+08;  18.8983      
   4.36450000000E+08;  18.8774      
   4.36500000000E+08;  18.88        
   4.36550000000E+08;  18.8997      
   4.36600000000E+08;  18.9207      
   4.36650000000E+08;  18.9394      
   4.36700000000E+08;  18.9457      
   4.36750000000E+08;  18.9472      
   4.36800000000E+08;  18.981       
   4.36850000000E+08;  18.9993      
   4.36900000000E+08;  19.0199      
   4.36950000000E+08;  19.0167      
   4.37000000000E+08;  19.0126      
   4.37050000000E+08;  19.0128      
   4.37100000000E+08;  19.0249      
   4.37150000000E+08;  19.0241      
   4.37200000000E+08;  19.0005      
   4.37250000000E+08;  19.0488      
   4.37300000000E+08;  19.0934      
   4.37350000000E+08;  19.1121      
   4.37400000000E+08;  19.1014      
   4.37450000000E+08;  19.0573      
   4.37500000000E+08;  18.9998      
   4.37550000000E+08;  18.9713      
   4.37600000000E+08;  18.9752      
   4.37650000000E+08;  19.0088      
   4.37700000000E+08;  19.0419      
   4.37750000000E+08;  19.0476      
   4.37800000000E+08;  19.032       
   4.37850000000E+08;  19.0762      
   4.37900000000E+08;  19.1368      
   4.37950000000E+08;  19.1972      
   4.38000000000E+08;  19.2318      
   4.38050000000E+08;  19.2544      
   4.38100000000E+08;  19.2831      
   4.38150000000E+08;  19.3107      
   4.38200000000E+08;  19.3353      
   4.38250000000E+08;  19.3564      
   4.38300000000E+08;  19.3697      
   4.38350000000E+08;  19.3806      
   4.38400000000E+08;  19.381       
   4.38450000000E+08;  19.3708      
   4.38500000000E+08;  19.3161      
   4.38550000000E+08;  19.2965      
   4.38600000000E+08;  19.3837      
   4.38650000000E+08;  19.4934      
   4.38700000000E+08;  19.5773      
   4.38750000000E+08;  19.6304      
   4.38800000000E+08;  19.6669      
   4.38850000000E+08;  19.6667      
   4.38900000000E+08;  19.6435      
   4.38950000000E+08;  19.591       
   4.39000000000E+08;  19.5072      
   4.39050000000E+08;  19.4222      
   4.39100000000E+08;  19.3841      
   4.39150000000E+08;  19.3643      
   4.39200000000E+08;  19.4404      
   4.39250000000E+08;  19.5467      
   4.39300000000E+08;  19.588       
   4.39350000000E+08;  19.5789      
   4.39400000000E+08;  19.545       
   4.39450000000E+08;  19.5448      
   4.39500000000E+08;  19.622       
   4.39550000000E+08;  19.6944      
   4.39600000000E+08;  19.7592      
   4.39650000000E+08;  19.8237      
   4.39700000000E+08;  19.8663      
   4.39750000000E+08;  19.8916      
   4.39800000000E+08;  19.9736      
   4.39850000000E+08;  20.0182      
   4.39900000000E+08;  20.1062      
   4.39950000000E+08;  20.203       
   4.40000000000E+08;  20.2561      
   4.40050000000E+08;  20.2779      
   4.40100000000E+08;  20.2653      
   4.40150000000E+08;  20.1887      
   4.40200000000E+08;  20.108       
   4.40250000000E+08;  20.1262      
   4.40300000000E+08;  20.1242      
   4.40350000000E+08;  20.0458      
   4.40400000000E+08;  20.0122      
   4.40450000000E+08;  20.0217      
   4.40500000000E+08;  20.0246      
   4.40550000000E+08;  19.9922      
   4.40600000000E+08;  19.8913      
   4.40650000000E+08;  19.8278      
   4.40700000000E+08;  19.9091      
   4.40750000000E+08;  19.9871      
   4.40800000000E+08;  20.0468      
   4.40850000000E+08;  20.0726      
   4.40900000000E+08;  20.0332      
   4.40950000000E+08;  19.9979      
   4.41000000000E+08;  20.0034      
   4.41050000000E+08;  19.9889      
   4.41100000000E+08;  19.9413      
   4.41150000000E+08;  19.8502      
   4.41200000000E+08;  19.8088      
   4.41250000000E+08;  19.9386      
   4.41300000000E+08;  20.0722      
   4.41350000000E+08;  20.1412      
   4.41400000000E+08;  20.1654      
   4.41450000000E+08;  20.1665      
   4.41500000000E+08;  20.1481      
   4.41550000000E+08;  20.1178      
   4.41600000000E+08;  20.0796      
   4.41650000000E+08;  20.0313      
   4.41700000000E+08;  19.969       
   4.41750000000E+08;  19.9312      
   4.41800000000E+08;  19.8642      
   4.41850000000E+08;  19.7691      
   4.41900000000E+08;  19.6411      
   4.41950000000E+08;  19.5534      
   4.42000000000E+08;  19.5588      
   4.42050000000E+08;  19.5977      
   4.42100000000E+08;  19.5919      
   4.42150000000E+08;  19.518       
   4.42200000000E+08;  19.4391      
   4.42250000000E+08;  19.3357      
   4.42300000000E+08;  19.2916      
   4.42350000000E+08;  19.3173      
   4.42400000000E+08;  19.377       
   4.42450000000E+08;  19.4404      
   4.42500000000E+08;  19.4707      
   4.42550000000E+08;  19.4144      
   4.42600000000E+08;  19.2977      
   4.42650000000E+08;  19.3124      
   4.42700000000E+08;  19.3673      
   4.42750000000E+08;  19.3711      
   4.42800000000E+08;  19.3467      
   4.42850000000E+08;  19.4191      
   4.42900000000E+08;  19.5521      
   4.42950000000E+08;  19.6218      
   4.43000000000E+08;  19.6176      
   4.43050000000E+08;  19.572       
   4.43100000000E+08;  19.5052      
   4.43150000000E+08;  19.4221      
   4.43200000000E+08;  19.3964      
   4.43250000000E+08;  19.4254      
   4.43300000000E+08;  19.4877      
   4.43350000000E+08;  19.5423      
   4.43400000000E+08;  19.5493      
   4.43450000000E+08;  19.5323      
   4.43500000000E+08;  19.4879      
   4.43550000000E+08;  19.4222      
   4.43600000000E+08;  19.3277      
   4.43650000000E+08;  19.3404      
   4.43700000000E+08;  19.3161      
   4.43750000000E+08;  19.2036      
   4.43800000000E+08;  19.081       
   4.43850000000E+08;  18.9428      
   4.43900000000E+08;  18.894       
   4.43950000000E+08;  18.9603      
   4.44000000000E+08;  19.0588      
   4.44050000000E+08;  19.0987      
   4.44100000000E+08;  19.167       
   4.44150000000E+08;  19.2121      
   4.44200000000E+08;  19.2096      
   4.44250000000E+08;  19.1631      
   4.44300000000E+08;  19.0878      
   4.44350000000E+08;  19.0401      
   4.44400000000E+08;  19.1123      
   4.44450000000E+08;  19.2169      
   4.44500000000E+08;  19.2724      
   4.44550000000E+08;  19.2568      
   4.44600000000E+08;  19.2806      
   4.44650000000E+08;  19.437       
   4.44700000000E+08;  19.5401      
   4.44750000000E+08;  19.5521      
   4.44800000000E+08;  19.5491      
   4.44850000000E+08;  19.5826      
   4.44900000000E+08;  19.6295      
   4.44950000000E+08;  19.6497      
   4.45000000000E+08;  19.6213      
   4.45050000000E+08;  19.5353      
   4.45100000000E+08;  19.4194      
   4.45150000000E+08;  19.2651      
   4.45200000000E+08;  19.0586      
   4.45250000000E+08;  18.7886      
   4.45300000000E+08;  18.4684      
   4.45350000000E+08;  18.0463      
   4.45400000000E+08;  17.6255      
   4.45450000000E+08;  17.4929      
   4.45500000000E+08;  17.7417      
   4.45550000000E+08;  18.0314      
   4.45600000000E+08;  18.4199      
   4.45650000000E+08;  18.7984      
   4.45700000000E+08;  18.9797      
   4.45750000000E+08;  18.9995      
   4.45800000000E+08;  18.9626      
   4.45850000000E+08;  18.9041      
   4.45900000000E+08;  18.7621      
   4.45950000000E+08;  18.5175      
   4.46000000000E+08;  18.2066      
   4.46050000000E+08;  17.9113      
   4.46100000000E+08;  17.8398      
   4.46150000000E+08;  17.9092      
   4.46200000000E+08;  17.8645      
   4.46250000000E+08;  17.7011      
   4.46300000000E+08;  17.5105      
   4.46350000000E+08;  17.3013      
   4.46400000000E+08;  17.1233      
   4.46450000000E+08;  16.9268      
   4.46500000000E+08;  16.678       
   4.46550000000E+08;  16.4385      
   4.46600000000E+08;  16.286       
   4.46650000000E+08;  16.1995      
   4.46700000000E+08;  16.169       
   4.46750000000E+08;  16.0798      
   4.46800000000E+08;  15.897       
   4.46850000000E+08;  15.6195      
   4.46900000000E+08;  15.2315      
   4.46950000000E+08;  14.7677      
   4.47000000000E+08;  14.223       
   4.47050000000E+08;  13.7214      
   4.47100000000E+08;  13.4127      
   4.47150000000E+08;  13.3007      
   4.47200000000E+08;  13.2831      
   4.47250000000E+08;  13.2199      
   4.47300000000E+08;  13.1214      
   4.47350000000E+08;  12.989       
   4.47400000000E+08;  12.8192      
   4.47450000000E+08;  12.5983      
   4.47500000000E+08;  12.4225      
   4.47550000000E+08;  12.3047      
   4.47600000000E+08;  12.1109      
   4.47650000000E+08;  11.9179      
   4.47700000000E+08;  11.7787      
   4.47750000000E+08;  11.6203      
   4.47800000000E+08;  11.4449      
   4.47850000000E+08;  11.1772      
   4.47900000000E+08;  10.8416      
   4.47950000000E+08;  10.5132      
   4.48000000000E+08;  10.2163      
   4.48050000000E+08;  9.95694      
   4.48100000000E+08;  9.68412      
   4.48150000000E+08;  9.38803      
   4.48200000000E+08;  9.08094      
   4.48250000000E+08;  8.80149      
   4.48300000000E+08;  8.57406      
   4.48350000000E+08;  8.40143      
   4.48400000000E+08;  8.2641       
   4.48450000000E+08;  8.14435      
   4.48500000000E+08;  8.1214       
   4.48550000000E+08;  8.00159      
   4.48600000000E+08;  7.77528      
   4.48650000000E+08;  7.50448      
   4.48700000000E+08;  7.24038      
   4.48750000000E+08;  6.93398      
   4.48800000000E+08;  6.54513      
   4.48850000000E+08;  6.2945       
   4.48900000000E+08;  6.0784       
   4.48950000000E+08;  5.87159      
   4.49000000000E+08;  5.70241      
   4.49050000000E+08;  5.60274      
   4.49100000000E+08;  5.45843      
   4.49150000000E+08;  5.26287      
   4.49200000000E+08;  5.1173       
   4.49250000000E+08;  5.02988      
   4.49300000000E+08;  4.86662      
   4.49350000000E+08;  4.63753      
   4.49400000000E+08;  4.457        
   4.49450000000E+08;  4.1781       
   4.49500000000E+08;  3.9032       
   4.49550000000E+08;  3.61116      
   4.49600000000E+08;  3.30958      
   4.49650000000E+08;  3.08013      
   4.49700000000E+08;  2.92672      
   4.49750000000E+08;  2.86783      
   4.49800000000E+08;  2.8079       
   4.49850000000E+08;  2.66687      
   4.49900000000E+08;  2.50513      
   4.49950000000E+08;  2.27596      
   4.50000000000E+08;  1.99286      
   4.50050000000E+08;  1.72349      
   4.50100000000E+08;  1.47449      
   4.50150000000E+08;  1.19225      
   4.50200000000E+08;  0.912037     
   4.50250000000E+08;  0.673089     
   4.50300000000E+08;  0.43663      
   4.50350000000E+08;  0.204901     
   4.50400000000E+08; -0.0381895    
   4.50450000000E+08; -0.283148     
   4.50500000000E+08; -0.382351     
   4.50550000000E+08; -0.373544     
   4.50600000000E+08; -0.44233      
   4.50650000000E+08; -0.58248      
   4.50700000000E+08; -0.724325     
   4.50750000000E+08; -0.891685     
   4.50800000000E+08; -1.07053      
   4.50850000000E+08; -1.23262      
   4.50900000000E+08; -1.32452      
   4.50950000000E+08; -1.43218      
   4.51000000000E+08; -1.52517      
   4.51050000000E+08; -1.7203       
   4.51100000000E+08; -1.96876      
   4.51150000000E+08; -2.21931      
   4.51200000000E+08; -2.31429      
   4.51250000000E+08; -2.49082      
   4.51300000000E+08; -2.78377      
   4.51350000000E+08; -3.02776      
   4.51400000000E+08; -3.26801      
   4.51450000000E+08; -3.37233      
   4.51500000000E+08; -3.62855      
   4.51550000000E+08; -3.9184       
   4.51600000000E+08; -4.16046      
   4.51650000000E+08; -4.39393      
   4.51700000000E+08; -4.57293      
   4.51750000000E+08; -4.71784      
   4.51800000000E+08; -4.85023      
   4.51850000000E+08; -4.99026      
   4.51900000000E+08; -5.20605      
   4.51950000000E+08; -5.37533      
   4.52000000000E+08; -5.54856      
   4.52050000000E+08; -5.65959      
   4.52100000000E+08; -5.76587      
   4.52150000000E+08; -6.00847      
   4.52200000000E+08; -6.31509      
   4.52250000000E+08; -6.62538      
   4.52300000000E+08; -6.8655       
   4.52350000000E+08; -7.09876      
   4.52400000000E+08; -7.22983      
   4.52450000000E+08; -7.22637      
   4.52500000000E+08; -7.24996      
   4.52550000000E+08; -7.15574      
   4.52600000000E+08; -7.20007      
   4.52650000000E+08; -7.3937       
   4.52700000000E+08; -7.69838      
   4.52750000000E+08; -8.10509      
   4.52800000000E+08; -8.47625      
   4.52850000000E+08; -8.78376      
   4.52900000000E+08; -9.04243      
   4.52950000000E+08; -9.13734      
   4.53000000000E+08; -9.21557      
   4.53050000000E+08; -9.2383       
   4.53100000000E+08; -9.18406      
   4.53150000000E+08; -9.49288      
   4.53200000000E+08; -9.73943      
   4.53250000000E+08; -9.44958      
   4.53300000000E+08; -9.64619      
   4.53350000000E+08; -10.2167      
   4.53400000000E+08; -10.8897      
   4.53450000000E+08; -11.2886      
   4.53500000000E+08; -10.9517      
   4.53550000000E+08; -10.2255      
   4.53600000000E+08; -10.165       
   4.53650000000E+08; -10.0237      
   4.53700000000E+08; -10.0501      
   4.53750000000E+08; -10.1609      
   4.53800000000E+08; -10.6012      
   4.53850000000E+08; -11.2846      
   4.53900000000E+08; -12.1333      
   4.53950000000E+08; -12.339       
   4.54000000000E+08; -12.1004      
   4.54050000000E+08; -12.0928      
   4.54100000000E+08; -12.0868      
   4.54150000000E+08; -11.2294      
   4.54200000000E+08; -10.306       
   4.54250000000E+08; -10.1067      
   4.54300000000E+08; -10.2936      
   4.54350000000E+08; -11.0295      
   4.54400000000E+08; -11.5293      
   4.54450000000E+08; -11.9014      
   4.54500000000E+08; -12.3772      
   4.54550000000E+08; -12.6139      
   4.54600000000E+08; -12.9208      
   4.54650000000E+08; -13.0611      
   4.54700000000E+08; -13.0443      
   4.54750000000E+08; -13.0719      
   4.54800000000E+08; -12.63        
   4.54850000000E+08; -11.6109      
   4.54900000000E+08; -11.1904      
   4.54950000000E+08; -11.7016      
   4.55000000000E+08; -12.115       
   4.55050000000E+08; -12.9335      
   4.55100000000E+08; -13.5245      
   4.55150000000E+08; -13.5958      
   4.55200000000E+08; -13.3935      
   4.55250000000E+08; -13.6701      
   4.55300000000E+08; -14.3037      
   4.55350000000E+08; -14.6642      
   4.55400000000E+08; -14.4412      
   4.55450000000E+08; -14.0242      
   4.55500000000E+08; -13.7096      
   4.55550000000E+08; -13.4701      
   4.55600000000E+08; -12.6543      
   4.55650000000E+08; -12.052       
   4.55700000000E+08; -12.155       
   4.55750000000E+08; -12.837       
   4.55800000000E+08; -13.3602      
   4.55850000000E+08; -13.758       
   4.55900000000E+08; -14.1514      
   4.55950000000E+08; -14.4682      
   4.56000000000E+08; -14.4346      
   4.56050000000E+08; -14.0895      
   4.56100000000E+08; -13.8718      
   4.56150000000E+08; -13.8161      
   4.56200000000E+08; -13.7033      
   4.56250000000E+08; -13.7338      
   4.56300000000E+08; -14.3203      
   4.56350000000E+08; -15.2777      
   4.56400000000E+08; -15.3209      
   4.56450000000E+08; -14.7986      
   4.56500000000E+08; -15.397       
   4.56550000000E+08; -16.2039      
   4.56600000000E+08; -17.1735      
   4.56650000000E+08; -17.8262      
   4.56700000000E+08; -18.3731      
   4.56750000000E+08; -18.0744      
   4.56800000000E+08; -16.8968      
   4.56850000000E+08; -15.509       
   4.56900000000E+08; -14.9142      
   4.56950000000E+08; -14.4184      
   4.57000000000E+08; -13.4619      
   4.57050000000E+08; -13.7213      
   4.57100000000E+08; -13.5483      
   4.57150000000E+08; -13.3512      
   4.57200000000E+08; -13.4167      
   4.57250000000E+08; -14.0712      
   4.57300000000E+08; -14.9589      
   4.57350000000E+08; -16.0506      
   4.57400000000E+08; -16.9859      
   4.57450000000E+08; -17.5483      
   4.57500000000E+08; -18.0951      
   4.57550000000E+08; -18.9104      
   4.57600000000E+08; -19.6602      
   4.57650000000E+08; -19.3743      
   4.57700000000E+08; -18.5613      
   4.57750000000E+08; -16.9799      
   4.57800000000E+08; -15.7582      
   4.57850000000E+08; -16.0255      
   4.57900000000E+08; -16.7372      
   4.57950000000E+08; -16.9527      
   4.58000000000E+08; -16.5303      
   4.58050000000E+08; -16.0069      
   4.58100000000E+08; -15.9879      
   4.58150000000E+08; -16.0562      
   4.58200000000E+08; -16.4315      
   4.58250000000E+08; -16.8867      
   4.58300000000E+08; -17.4051      
   4.58350000000E+08; -18.2018      
   4.58400000000E+08; -18.3386      
   4.58450000000E+08; -18.6559      
   4.58500000000E+08; -18.4968      
   4.58550000000E+08; -18.3757      
   4.58600000000E+08; -18.6241      
   4.58650000000E+08; -19.0215      
   4.58700000000E+08; -17.785       
   4.58750000000E+08; -16.4033      
   4.58800000000E+08; -15.5639      
   4.58850000000E+08; -15.7584      
   4.58900000000E+08; -16.9002      
   4.58950000000E+08; -18.2263      
   4.59000000000E+08; -18.942       
   4.59050000000E+08; -18.852       
   4.59100000000E+08; -17.8231      
   4.59150000000E+08; -17.5487      
   4.59200000000E+08; -17.3765      
   4.59250000000E+08; -16.9973      
   4.59300000000E+08; -17.0429      
   4.59350000000E+08; -17.649       
   4.59400000000E+08; -18.4814      
   4.59450000000E+08; -18.8265      
   4.59500000000E+08; -18.3483      
   4.59550000000E+08; -17.8234      
   4.59600000000E+08; -17.6236      
   4.59650000000E+08; -17.8742      
   4.59700000000E+08; -18.3151      
   4.59750000000E+08; -19.5644      
   4.59800000000E+08; -20.599       
   4.59850000000E+08; -21.3114      
   4.59900000000E+08; -21.6351      
   4.59950000000E+08; -20.736       
   4.60000000000E+08; -19.6012      
   4.60050000000E+08; -18.9729      
   4.60100000000E+08; -18.4203      
   4.60150000000E+08; -17.9372      
   4.60200000000E+08; -17.3181      
   4.60250000000E+08; -17.1562      
   4.60300000000E+08; -16.8934      
   4.60350000000E+08; -16.4342      
   4.60400000000E+08; -16.3996      
   4.60450000000E+08; -16.9292      
   4.60500000000E+08; -17.2572      
   4.60550000000E+08; -17.1152      
   4.60600000000E+08; -17.5621      
   4.60650000000E+08; -18.1927      
   4.60700000000E+08; -18.7264      
   4.60750000000E+08; -19.9077      
   4.60800000000E+08; -20.5988      
   4.60850000000E+08; -20.7174      
   4.60900000000E+08; -21.0306      
   4.60950000000E+08; -20.4942      
   4.61000000000E+08; -20.3864      
   4.61050000000E+08; -20.7212      
   4.61100000000E+08; -20.4057      
   4.61150000000E+08; -19.8908      
   4.61200000000E+08; -18.9989      
   4.61250000000E+08; -17.67        
   4.61300000000E+08; -17.5508      
   4.61350000000E+08; -17.8698      
   4.61400000000E+08; -17.9563      
   4.61450000000E+08; -18.2483      
   4.61500000000E+08; -18.2845      
   4.61550000000E+08; -17.5975      
   4.61600000000E+08; -16.1146      
   4.61650000000E+08; -14.9194      
   4.61700000000E+08; -14.5551      
   4.61750000000E+08; -15.8035      
   4.61800000000E+08; -17.3521      
   4.61850000000E+08; -17.9579      
   4.61900000000E+08; -18.3953      
   4.61950000000E+08; -19.2386      
   4.62000000000E+08; -19.9009      
   4.62050000000E+08; -19.3799      
   4.62100000000E+08; -19.0686      
   4.62150000000E+08; -19.3171      
   4.62200000000E+08; -19.5349      
   4.62250000000E+08; -20.0789      
   4.62300000000E+08; -20.8792      
   4.62350000000E+08; -21.7288      
   4.62400000000E+08; -22.4916      
   4.62450000000E+08; -20.1865      
   4.62500000000E+08; -17.7817      
   4.62550000000E+08; -17.3296      
   4.62600000000E+08; -17.2853      
   4.62650000000E+08; -18.144       
   4.62700000000E+08; -18.7463      
   4.62750000000E+08; -18.2342      
   4.62800000000E+08; -17.1461      
   4.62850000000E+08; -16.3425      
   4.62900000000E+08; -15.5494      
   4.62950000000E+08; -15.0239      
   4.63000000000E+08; -14.7519      
   4.63050000000E+08; -15.5268      
   4.63100000000E+08; -16.4704      
   4.63150000000E+08; -17.8944      
   4.63200000000E+08; -19.1549      
   4.63250000000E+08; -19.8755      
   4.63300000000E+08; -20.2937      
   4.63350000000E+08; -20.1952      
   4.63400000000E+08; -20.2313      
   4.63450000000E+08; -20.2248      
   4.63500000000E+08; -20.6046      
   4.63550000000E+08; -20.3963      
   4.63600000000E+08; -19.7745      
   4.63650000000E+08; -19.2722      
   4.63700000000E+08; -19.1789      
   4.63750000000E+08; -20.1748      
   4.63800000000E+08; -21.7893      
   4.63850000000E+08; -18.7637      
   4.63900000000E+08; -16.2761      
   4.63950000000E+08; -15.6815      
   4.64000000000E+08; -15.6843      
   4.64050000000E+08; -16.115       
   4.64100000000E+08; -16.6469      
   4.64150000000E+08; -17.4938      
   4.64200000000E+08; -17.9413      
   4.64250000000E+08; -18.2162      
   4.64300000000E+08; -18.0623      
   4.64350000000E+08; -17.6954      
   4.64400000000E+08; -17.4567      
   4.64450000000E+08; -17.4685      
   4.64500000000E+08; -16.8925      
   4.64550000000E+08; -16.4031      
   4.64600000000E+08; -16.591       
   4.64650000000E+08; -16.7865      
   4.64700000000E+08; -17.3378      
   4.64750000000E+08; -18.174       
   4.64800000000E+08; -19.3722      
   4.64850000000E+08; -20.9021      
   4.64900000000E+08; -23.1192      
   4.64950000000E+08; -23.804       
   4.65000000000E+08; -22.6992      
   4.65050000000E+08; -21.2637      
   4.65100000000E+08; -19.1503      
   4.65150000000E+08; -18.8125      
   4.65200000000E+08; -18.7893      
   4.65250000000E+08; -18.3417      
   4.65300000000E+08; -17.6829      
   4.65350000000E+08; -16.9787      
   4.65400000000E+08; -16.827       
   4.65450000000E+08; -16.3249      
   4.65500000000E+08; -15.5704      
   4.65550000000E+08; -15.1672      
   4.65600000000E+08; -15.2545      
   4.65650000000E+08; -16.0754      
   4.65700000000E+08; -17.0335      
   4.65750000000E+08; -18.096       
   4.65800000000E+08; -18.7292      
   4.65850000000E+08; -18.608       
   4.65900000000E+08; -19.2546      
   4.65950000000E+08; -20.2631      
   4.66000000000E+08; -21.2233      
   4.66050000000E+08; -20.8403      
   4.66100000000E+08; -20.4989      
   4.66150000000E+08; -20.1585      
   4.66200000000E+08; -20.2223      
   4.66250000000E+08; -19.8556      
   4.66300000000E+08; -19.5219      
   4.66350000000E+08; -19.1568      
   4.66400000000E+08; -18.86        
   4.66450000000E+08; -18.7815      
   4.66500000000E+08; -19.1699      
   4.66550000000E+08; -19.0891      
   4.66600000000E+08; -19.0526      
   4.66650000000E+08; -18.8023      
   4.66700000000E+08; -19.7993      
   4.66750000000E+08; -20.9331      
   4.66800000000E+08; -21.8271      
   4.66850000000E+08; -21.8481      
   4.66900000000E+08; -21.476       
   4.66950000000E+08; -20.7546      
   4.67000000000E+08; -20.0698      
   4.67050000000E+08; -19.6542      
   4.67100000000E+08; -19.3763      
   4.67150000000E+08; -20.1127      
   4.67200000000E+08; -22.2653      
   4.67250000000E+08; -22.2249      
   4.67300000000E+08; -21.9922      
   4.67350000000E+08; -20.9713      
   4.67400000000E+08; -20.4516      
   4.67450000000E+08; -19.8896      
   4.67500000000E+08; -19.1734      
   4.67550000000E+08; -19.503       
   4.67600000000E+08; -20.4915      
   4.67650000000E+08; -20.8838      
   4.67700000000E+08; -20.3903      
   4.67750000000E+08; -20.0851      
   4.67800000000E+08; -20.1656      
   4.67850000000E+08; -20.6229      
   4.67900000000E+08; -21.3137      
   4.67950000000E+08; -20.7394      
   4.68000000000E+08; -20.4048      
   4.68050000000E+08; -20.0007      
   4.68100000000E+08; -19.6378      
   4.68150000000E+08; -20.0738      
   4.68200000000E+08; -21.1801      
   4.68250000000E+08; -21.939       
   4.68300000000E+08; -22.3223      
   4.68350000000E+08; -22.6802      
   4.68400000000E+08; -22.4597      
   4.68450000000E+08; -22.3211      
   4.68500000000E+08; -21.4902      
   4.68550000000E+08; -21.155       
   4.68600000000E+08; -21.3714      
   4.68650000000E+08; -21.5491      
   4.68700000000E+08; -21.2514      
   4.68750000000E+08; -21.1432      
   4.68800000000E+08; -21.3137      
   4.68850000000E+08; -21.3025      
   4.68900000000E+08; -20.693       
   4.68950000000E+08; -20.2517      
   4.69000000000E+08; -20.5408      
   4.69050000000E+08; -20.7762      
   4.69100000000E+08; -20.7609      
   4.69150000000E+08; -22.2915      
   4.69200000000E+08; -24.7613      
   4.69250000000E+08; -24.6127      
   4.69300000000E+08; -24.1174      
   4.69350000000E+08; -24.2259      
   4.69400000000E+08; -25.1217      
   4.69450000000E+08; -26.0664      
   4.69500000000E+08; -25.0987      
   4.69550000000E+08; -24.8469      
   4.69600000000E+08; -24.6821      
   4.69650000000E+08; -24.4428      
   4.69700000000E+08; -23.8129      
   4.69750000000E+08; -23.2837      
   4.69800000000E+08; -22.6236      
   4.69850000000E+08; -22.2957      
   4.69900000000E+08; -22.6268      
   4.69950000000E+08; -22.546       
   4.70000000000E+08; -23.1722      
   4.70050000000E+08; -23.9412      
   4.70100000000E+08; -24.8634      
   4.70150000000E+08; -25.1623      
   4.70200000000E+08; -25.5084      
   4.70250000000E+08; -27.2299      
   4.70300000000E+08; -26.8773      
   4.70350000000E+08; -25.7855      
   4.70400000000E+08; -25.4445      
   4.70450000000E+08; -25.0144      
   4.70500000000E+08; -25.1943      
   4.70550000000E+08; -26.3076      
   4.70600000000E+08; -28.4553      
   4.70650000000E+08; -28.3728      
   4.70700000000E+08; -26.912       
   4.70750000000E+08; -25.6784      
   4.70800000000E+08; -25.4993      
   4.70850000000E+08; -24.766       
   4.70900000000E+08; -24.4456      
   4.70950000000E+08; -24.0638      
   4.71000000000E+08; -23.9756      
   4.71050000000E+08; -23.8255      
   4.71100000000E+08; -23.7704      
   4.71150000000E+08; -24.0287      
   4.71200000000E+08; -24.0379      
   4.71250000000E+08; -24.0601      
   4.71300000000E+08; -23.7387      
   4.71350000000E+08; -22.8832      
   4.71400000000E+08; -22.4401      
   4.71450000000E+08; -22.6106      
   4.71500000000E+08; -24.0014      
   4.71550000000E+08; -27.6783      
   4.71600000000E+08; -30.5973      
   4.71650000000E+08; -30.7118      
   4.71700000000E+08; -31.1962      
   4.71750000000E+08; -32.0599      
   4.71800000000E+08; -31.115       
   4.71850000000E+08; -30.033       
   4.71900000000E+08; -29.8766      
   4.71950000000E+08; -29.5112      
   4.72000000000E+08; -29.4416      
   4.72050000000E+08; -29.113       
   4.72100000000E+08; -28.4438      
   4.72150000000E+08; -28.0494      
   4.72200000000E+08; -28.5055      
   4.72250000000E+08; -28.982       
   4.72300000000E+08; -29.7291      
   4.72350000000E+08; -30.7664      
   4.72400000000E+08; -30.6155      
   4.72450000000E+08; -29.7035      
   4.72500000000E+08; -28.2922      
   4.72550000000E+08; -28.3138      
   4.72600000000E+08; -28.2048      
   4.72650000000E+08; -27.1879      
   4.72700000000E+08; -26.9331      
   4.72750000000E+08; -28.2403      
   4.72800000000E+08; -28.9435      
   4.72850000000E+08; -30.662       
   4.72900000000E+08; -29.2693      
   4.72950000000E+08; -27.6667      
   4.73000000000E+08; -27.5773      
   4.73050000000E+08; -28.1639      
   4.73100000000E+08; -28.4625      
   4.73150000000E+08; -30.873       
   4.73200000000E+08; -32.9323      
   4.73250000000E+08; -33.7496      
   4.73300000000E+08; -34.3384      
   4.73350000000E+08; -39.5536      
   4.73400000000E+08; -38.5907      
   4.73450000000E+08; -38.9903      
   4.73500000000E+08; -38.1318      
   4.73550000000E+08; -35.2169      
   4.73600000000E+08; -35.792       
   4.73650000000E+08; -36.3897      
   4.73700000000E+08; -36.3658      
   4.73750000000E+08; -35.2847      
   4.73800000000E+08; -35.5818      
   4.73850000000E+08; -36.5451      
   4.73900000000E+08; -34.8579      
   4.73950000000E+08; -35.36        
   4.74000000000E+08; -36.4433      
   4.74050000000E+08; -39.6413      
   4.74100000000E+08; -34.0807      
   4.74150000000E+08; -31.6192      
   4.74200000000E+08; -29.3043      
   4.74250000000E+08; -28.8702      
   4.74300000000E+08; -27.3339      
   4.74350000000E+08; -26.6772      
   4.74400000000E+08; -27.5466      
   4.74450000000E+08; -30.8572      
   4.74500000000E+08; -34.3913      
   4.74550000000E+08; -34.6         
   4.74600000000E+08; -33.8944      
   4.74650000000E+08; -34.2335      
   4.74700000000E+08; -34.1531      
   4.74750000000E+08; -34.0226      
   4.74800000000E+08; -32.2348      
   4.74850000000E+08; -34.3676      
   4.74900000000E+08; -37.2232      
   4.74950000000E+08; -42.4946      
   4.75000000000E+08; -45.0015      
   4.75050000000E+08; -43.8393      
   4.75100000000E+08; -39.9948      
   4.75150000000E+08; -40.0341      
   4.75200000000E+08; -40.2959      
   4.75250000000E+08; -41.6212      
   4.75300000000E+08; -41.6365      
   4.75350000000E+08; -43.4116      
   4.75400000000E+08; -46.0775      
   4.75450000000E+08; -44.6915      
   4.75500000000E+08; -41.6231      
   4.75550000000E+08; -41.4153      
   4.75600000000E+08; -39.3408      
   4.75650000000E+08; -38.561       
   4.75700000000E+08; -37.4078      
   4.75750000000E+08; -37.6211      
   4.75800000000E+08; -37.5029      
   4.75850000000E+08; -41.9089      
   4.75900000000E+08; -49.7271      
   4.75950000000E+08; -49.4872      
   4.76000000000E+08; -51.5682      
   4.76050000000E+08; -46.8515      
   4.76100000000E+08; -48.0275      
   4.76150000000E+08; -43.5837      
   4.76200000000E+08; -43.3629      
   4.76250000000E+08; -44.9247      
   4.76300000000E+08; -45.798       
   4.76350000000E+08; -44.2009      
   4.76400000000E+08; -48.0613      
   4.76450000000E+08; -43.6394      
   4.76500000000E+08; -44.127       
   4.76550000000E+08; -46.9774      
   4.76600000000E+08; -48.2239      
   4.76650000000E+08; -46.3889      
   4.76700000000E+08; -44.2476      
   4.76750000000E+08; -54.308       
   4.76800000000E+08; -50.2587      
   4.76850000000E+08; -55.5382      
   4.76900000000E+08; -45.7785      
   4.76950000000E+08; -43.3511      
   4.77000000000E+08; -39.5931      
   4.77050000000E+08; -38.2408      
   4.77100000000E+08; -37.1155      
   4.77150000000E+08; -37.0202      
   4.77200000000E+08; -36.9336      
   4.77250000000E+08; -37.9663      
   4.77300000000E+08; -37.8026      
   4.77350000000E+08; -37.1169      
   4.77400000000E+08; -35.7604      
   4.77450000000E+08; -36.9828      
   4.77500000000E+08; -38.0297      
   4.77550000000E+08; -35.8203      
   4.77600000000E+08; -36.3835      
   4.77650000000E+08; -37.7774      
   4.77700000000E+08; -36.0973      
   4.77750000000E+08; -34.8461      
   4.77800000000E+08; -34.4838      
   4.77850000000E+08; -36.6635      
   4.77900000000E+08; -37.4437      
   4.77950000000E+08; -38.3457      
   4.78000000000E+08; -38.7308      
   4.78050000000E+08; -38.451       
   4.78100000000E+08; -38.9496      
   4.78150000000E+08; -40.3716      
   4.78200000000E+08; -43.7705      
   4.78250000000E+08; -45.1867      
   4.78300000000E+08; -48.6229      
   4.78350000000E+08; -50.5358      
   4.78400000000E+08; -55.062       
   4.78450000000E+08; -65.6691      
   4.78500000000E+08; -49.1593      
   4.78550000000E+08; -42.3348      
   4.78600000000E+08; -41.1117      
   4.78650000000E+08; -40.4479      
   4.78700000000E+08; -39.3366      
   4.78750000000E+08; -37.3723      
   4.78800000000E+08; -34.522       
   4.78850000000E+08; -33.6331      
   4.78900000000E+08; -33.79        
   4.78950000000E+08; -34.1849      
   4.79000000000E+08; -34.2383      
   4.79050000000E+08; -36.2836      
   4.79100000000E+08; -38.8343      
   4.79150000000E+08; -38.9843      
   4.79200000000E+08; -35.0682      
   4.79250000000E+08; -34.0139      
   4.79300000000E+08; -34.4478      
   4.79350000000E+08; -35.708       
   4.79400000000E+08; -38.5287      
   4.79450000000E+08; -37.6298      
   4.79500000000E+08; -36.9889      
   4.79550000000E+08; -37.3693      
   4.79600000000E+08; -37.9954      
   4.79650000000E+08; -38.7962      
   4.79700000000E+08; -39.3808      
   4.79750000000E+08; -38.5834      
   4.79800000000E+08; -37.4583      
   4.79850000000E+08; -37.5158      
   4.79900000000E+08; -36.0661      
   4.79950000000E+08; -36.079       
   4.80000000000E+08; -33.7454      
